TimeStamp,Delta_TP9,Delta_AF7,Delta_AF8,Delta_TP10,Theta_TP9,Theta_AF7,Theta_AF8,Theta_TP10,Alpha_TP9,Alpha_AF7,Alpha_AF8,Alpha_TP10,Beta_TP9,Beta_AF7,Beta_AF8,Beta_TP10,Gamma_TP9,Gamma_AF7,Gamma_AF8,Gamma_TP10,RAW_TP9,RAW_AF7,RAW_AF8,RAW_TP10,AUX_RIGHT,Accelerometer_X,Accelerometer_Y,Accelerometer_Z,Gyro_X,Gyro_Y,Gyro_Z,HeadBandOn,HSI_TP9,HSI_AF7,HSI_AF8,HSI_TP10,Battery,Elements
2022-11-23 20:20:39.856,1.0422646,0.19050474,0.08201742,1.1157523,0.9392907,0.21431142,0.054495882,0.89388597,0.94147074,0.2328058,0.2601335,1.0160247,0.22263233,-0.21665321,-0.16473895,0.18474756,-0.24531803,-0.5643799,-0.64346355,-0.076163374,819.9634,803.0403,803.44324,819.5604,832.4542,-0.18975830078125,0.00146484375,1.003173828125,2.743988037109375,0.5682373046875,-0.157012939453125,1,1.0,1.0,1.0,1.0,55.00
2022-11-23 20:20:39.857,1.0422646,0.19050474,0.08201742,1.1157523,0.9392907,0.21431142,0.054495882,0.89388597,0.94147074,0.2328058,0.2601335,1.0160247,0.22263233,-0.21665321,-0.16473895,0.18474756,-0.24531803,-0.5643799,-0.64346355,-0.076163374,837.28937,805.05493,808.2784,832.8571,934.3956,-0.18975830078125,0.00146484375,1.003173828125,2.743988037109375,0.5682373046875,-0.157012939453125,1,1.0,1.0,1.0,1.0,55.00
2022-11-23 20:20:39.857,1.0422646,0.19050474,0.08201742,1.1157523,0.9392907,0.21431142,0.054495882,0.89388597,0.94147074,0.2328058,0.2601335,1.0160247,0.22263233,-0.21665321,-0.16473895,0.18474756,-0.24531803,-0.5643799,-0.64346355,-0.076163374,793.7729,801.8315,805.05493,802.23444,746.63007,-0.18975830078125,0.00146484375,1.003173828125,2.743988037109375,0.5682373046875,-0.157012939453125,1,1.0,1.0,1.0,1.0,55.00
2022-11-23 20:20:39.858,1.0422646,0.19050474,0.08201742,1.1157523,0.9392907,0.21431142,0.054495882,0.89388597,0.94147074,0.2328058,0.2601335,1.0160247,0.22263233,-0.21665321,-0.16473895,0.18474756,-0.24531803,-0.5643799,-0.64346355,-0.076163374,771.2088,796.99634,801.02563,784.90845,692.23444,-0.18975830078125,0.00146484375,1.003173828125,2.743988037109375,0.5682373046875,-0.157012939453125,1,1.0,1.0,1.0,1.0,55.00
2022-11-23 20:20:39.858,1.0422646,0.19050474,0.08201742,1.1157523,0.9392907,0.21431142,0.054495882,0.89388597,0.94147074,0.2328058,0.2601335,1.0160247,0.22263233,-0.21665321,-0.16473895,0.18474756,-0.24531803,-0.5643799,-0.64346355,-0.076163374,806.6667,797.8022,804.2491,817.1429,756.7033,-0.18975830078125,0.00146484375,1.003173828125,2.743988037109375,0.5682373046875,-0.157012939453125,1,1.0,1.0,1.0,1.0,55.00
2022-11-23 20:20:39.858,1.0422646,0.19050474,0.08201742,1.1157523,0.9392907,0.21431142,0.054495882,0.89388597,0.94147074,0.2328058,0.2601335,1.0160247,0.22263233,-0.21665321,-0.16473895,0.18474756,-0.24531803,-0.5643799,-0.64346355,-0.076163374,834.4689,800.2198,806.26373,832.8571,920.293,-0.18975830078125,0.00146484375,1.003173828125,2.743988037109375,0.5682373046875,-0.157012939453125,1,1.0,1.0,1.0,1.0,55.00
2022-11-23 20:20:39.858,1.0422646,0.19050474,0.08201742,1.1157523,0.9392907,0.21431142,0.054495882,0.89388597,0.94147074,0.2328058,0.2601335,1.0160247,0.22263233,-0.21665321,-0.16473895,0.18474756,-0.24531803,-0.5643799,-0.64346355,-0.076163374,809.4872,796.1905,806.6667,802.23444,928.3516,-0.18975830078125,0.00146484375,1.003173828125,2.743988037109375,0.5682373046875,-0.157012939453125,1,1.0,1.0,1.0,1.0,55.00
2022-11-23 20:20:39.859,1.0422646,0.19050474,0.08201742,1.1157523,0.9392907,0.21431142,0.054495882,0.89388597,0.94147074,0.2328058,0.2601335,1.0160247,0.22263233,-0.21665321,-0.16473895,0.18474756,-0.24531803,-0.5643799,-0.64346355,-0.076163374,779.2674,793.7729,805.05493,783.2967,645.09155,-0.18975830078125,0.00146484375,1.003173828125,2.743988037109375,0.5682373046875,-0.157012939453125,1,1.0,1.0,1.0,1.0,55.00
2022-11-23 20:20:39.859,1.0422646,0.19050474,0.08201742,1.1157523,0.9392907,0.21431142,0.054495882,0.89388597,0.94147074,0.2328058,0.2601335,1.0160247,0.22263233,-0.21665321,-0.16473895,0.18474756,-0.24531803,-0.5643799,-0.64346355,-0.076163374,798.20514,794.17584,800.6227,801.4286,657.98535,-0.18975830078125,0.00146484375,1.003173828125,2.743988037109375,0.5682373046875,-0.157012939453125,1,1.0,1.0,1.0,1.0,55.00
2022-11-23 20:20:39.859,1.0422646,0.19050474,0.08201742,1.1157523,0.9392907,0.21431142,0.054495882,0.89388597,0.94147074,0.2328058,0.2601335,1.0160247,0.22263233,-0.21665321,-0.16473895,0.18474756,-0.24531803,-0.5643799,-0.64346355,-0.076163374,838.0952,794.9817,799.41394,834.87177,1050.0366,-0.18975830078125,0.00146484375,1.003173828125,2.743988037109375,0.5682373046875,-0.157012939453125,1,1.0,1.0,1.0,1.0,55.00
2022-11-23 20:20:39.859,1.0422646,0.19050474,0.08201742,1.1157523,0.9392907,0.21431142,0.054495882,0.89388597,0.94147074,0.2328058,0.2601335,1.0160247,0.22263233,-0.21665321,-0.16473895,0.18474756,-0.24531803,-0.5643799,-0.64346355,-0.076163374,826.4103,794.9817,801.8315,821.978,883.22345,-0.18975830078125,0.00146484375,1.003173828125,2.743988037109375,0.5682373046875,-0.157012939453125,1,1.0,1.0,1.0,1.0,55.00
2022-11-23 20:20:39.860,1.0422646,0.19050474,0.08201742,1.1157523,0.9392907,0.21431142,0.054495882,0.89388597,0.94147074,0.2328058,0.2601335,1.0160247,0.22263233,-0.21665321,-0.16473895,0.18474756,-0.24531803,-0.5643799,-0.64346355,-0.076163374,780.87915,797.3993,805.05493,787.72894,629.3773,-0.18975830078125,0.00146484375,1.003173828125,2.743988037109375,0.5682373046875,-0.157012939453125,1,1.0,1.0,1.0,1.0,55.00
2022-11-23 20:20:39.882,1.0422646,0.19050474,0.08201742,1.1157523,0.9392907,0.21431142,0.054495882,0.89388597,0.94147074,0.2328058,0.2601335,1.0160247,0.22263233,-0.21665321,-0.16473895,0.18474756,-0.24531803,-0.5643799,-0.64346355,-0.076163374,790.14655,803.0403,804.2491,801.4286,787.72894,-0.18975830078125,0.00146484375,1.003173828125,2.743988037109375,0.5682373046875,-0.157012939453125,1,1.0,1.0,1.0,1.0,55.00
2022-11-23 20:20:39.882,1.0422646,0.19050474,0.08201742,1.1157523,0.9392907,0.21431142,0.054495882,0.89388597,0.94147074,0.2328058,0.2601335,1.0160247,0.22263233,-0.21665321,-0.16473895,0.18474756,-0.24531803,-0.5643799,-0.64346355,-0.076163374,848.1685,807.47253,805.05493,829.2308,874.7619,-0.18975830078125,0.00146484375,1.003173828125,2.743988037109375,0.5682373046875,-0.157012939453125,1,1.0,1.0,1.0,1.0,55.00
2022-11-23 20:20:39.883,1.0422646,0.19050474,0.08201742,1.1157523,0.9392907,0.21431142,0.054495882,0.89388597,0.94147074,0.2328058,0.2601335,1.0160247,0.22263233,-0.21665321,-0.16473895,0.18474756,-0.24531803,-0.5643799,-0.64346355,-0.076163374,851.79486,811.0989,805.05493,816.7399,804.2491,-0.18975830078125,0.00146484375,1.003173828125,2.743988037109375,0.5682373046875,-0.157012939453125,1,1.0,1.0,1.0,1.0,55.00
2022-11-23 20:20:39.883,1.0422646,0.19050474,0.08201742,1.1157523,0.9392907,0.21431142,0.054495882,0.89388597,0.94147074,0.2328058,0.2601335,1.0160247,0.22263233,-0.21665321,-0.16473895,0.18474756,-0.24531803,-0.5643799,-0.64346355,-0.076163374,801.4286,810.696,801.02563,782.49084,657.5824,-0.18975830078125,0.00146484375,1.003173828125,2.743988037109375,0.5682373046875,-0.157012939453125,1,1.0,1.0,1.0,1.0,55.00
2022-11-23 20:20:39.883,1.0422646,0.19050474,0.08201742,1.1157523,0.9392907,0.21431142,0.054495882,0.89388597,0.94147074,0.2328058,0.2601335,1.0160247,0.22263233,-0.21665321,-0.16473895,0.18474756,-0.24531803,-0.5643799,-0.64346355,-0.076163374,790.14655,807.47253,799.41394,784.5055,637.03296,-0.18975830078125,0.00146484375,1.003173828125,2.743988037109375,0.5682373046875,-0.157012939453125,1,1.0,1.0,1.0,1.0,55.00
2022-11-23 20:20:39.884,1.0422646,0.19050474,0.08201742,1.1157523,0.9392907,0.21431142,0.054495882,0.89388597,0.94147074,0.2328058,0.2601335,1.0160247,0.22263233,-0.21665321,-0.16473895,0.18474756,-0.24531803,-0.5643799,-0.64346355,-0.076163374,827.2161,810.696,798.60803,818.3516,866.7033,-0.18975830078125,0.00146484375,1.003173828125,2.743988037109375,0.5682373046875,-0.157012939453125,1,1.0,1.0,1.0,1.0,55.00
2022-11-23 20:20:39.884,1.0422646,0.19050474,0.08201742,1.1157523,0.9392907,0.21431142,0.054495882,0.89388597,0.94147074,0.2328058,0.2601335,1.0160247,0.22263233,-0.21665321,-0.16473895,0.18474756,-0.24531803,-0.5643799,-0.64346355,-0.076163374,837.28937,811.9048,799.81683,826.4103,951.7216,-0.18975830078125,0.00146484375,1.003173828125,2.743988037109375,0.5682373046875,-0.157012939453125,1,1.0,1.0,1.0,1.0,55.00
2022-11-23 20:20:39.884,1.0422646,0.19050474,0.08201742,1.1157523,0.9392907,0.21431142,0.054495882,0.89388597,0.94147074,0.2328058,0.2601335,1.0160247,0.22263233,-0.21665321,-0.16473895,0.18474756,-0.24531803,-0.5643799,-0.64346355,-0.076163374,792.5641,809.4872,799.81683,787.326,636.2271,-0.18975830078125,0.00146484375,1.003173828125,2.743988037109375,0.5682373046875,-0.157012939453125,1,1.0,1.0,1.0,1.0,55.00
2022-11-23 20:20:39.884,1.0422646,0.19050474,0.08201742,1.1157523,0.9392907,0.21431142,0.054495882,0.89388597,0.94147074,0.2328058,0.2601335,1.0160247,0.22263233,-0.21665321,-0.16473895,0.18474756,-0.24531803,-0.5643799,-0.64346355,-0.076163374,764.35895,807.8755,802.23444,769.19415,662.01465,-0.18975830078125,0.00146484375,1.003173828125,2.743988037109375,0.5682373046875,-0.157012939453125,1,1.0,1.0,1.0,1.0,55.00
2022-11-23 20:20:39.885,1.1182072,0.22708745,0.08629177,1.1412365,1.0064833,0.2865692,0.08915658,0.9156913,0.94147074,0.24325393,0.30007374,1.0160247,0.22292455,-0.2050936,-0.14848551,0.19407362,-0.2330039,-0.5492004,-0.64850765,-0.06831827,794.57874,808.2784,803.8461,805.4579,871.13556,-0.18975830078125,0.00146484375,1.003173828125,2.743988037109375,0.5682373046875,-0.157012939453125,1,1.0,1.0,1.0,1.0,55.00
2022-11-23 20:20:39.886,1.1182072,0.22708745,0.08629177,1.1412365,1.0064833,0.2865692,0.08915658,0.9156913,0.94147074,0.24325393,0.30007374,1.0160247,0.22292455,-0.2050936,-0.14848551,0.19407362,-0.2330039,-0.5492004,-0.64850765,-0.06831827,827.619,811.50183,802.23444,819.9634,805.05493,-0.18975830078125,0.00146484375,1.003173828125,2.743988037109375,0.5682373046875,-0.157012939453125,1,1.0,1.0,1.0,1.0,55.00
2022-11-23 20:20:39.886,1.1182072,0.22708745,0.08629177,1.1412365,1.0064833,0.2865692,0.08915658,0.9156913,0.94147074,0.24325393,0.30007374,1.0160247,0.22292455,-0.2050936,-0.14848551,0.19407362,-0.2330039,-0.5492004,-0.64850765,-0.06831827,811.50183,811.50183,804.2491,796.99634,743.00366,-0.18975830078125,0.00146484375,1.003173828125,2.743988037109375,0.5682373046875,-0.157012939453125,1,1.0,1.0,1.0,1.0,55.00
2022-11-23 20:20:39.943,1.1182072,0.22708745,0.08629177,1.1412365,1.0064833,0.2865692,0.08915658,0.9156913,0.94147074,0.24325393,0.30007374,1.0160247,0.22292455,-0.2050936,-0.14848551,0.19407362,-0.2330039,-0.5492004,-0.64850765,-0.06831827,765.9707,807.0696,801.8315,770.80585,654.35895,-0.18927001953125,0.00848388671875,1.01080322265625,3.401947021484375,-0.07476806640625,-0.366363525390625,1,1.0,1.0,1.0,1.0,55.00
2022-11-23 20:20:39.944,1.1182072,0.22708745,0.08629177,1.1412365,1.0064833,0.2865692,0.08915658,0.9156913,0.94147074,0.24325393,0.30007374,1.0160247,0.22292455,-0.2050936,-0.14848551,0.19407362,-0.2330039,-0.5492004,-0.64850765,-0.06831827,765.16486,804.65204,797.3993,777.25275,651.13556,-0.18927001953125,0.00848388671875,1.01080322265625,3.401947021484375,-0.07476806640625,-0.366363525390625,1,1.0,1.0,1.0,1.0,55.00
2022-11-23 20:20:39.944,1.1182072,0.22708745,0.08629177,1.1412365,1.0064833,0.2865692,0.08915658,0.9156913,0.94147074,0.24325393,0.30007374,1.0160247,0.22292455,-0.2050936,-0.14848551,0.19407362,-0.2330039,-0.5492004,-0.64850765,-0.06831827,814.7253,805.8608,799.011,808.2784,804.2491,-0.18927001953125,0.00848388671875,1.01080322265625,3.401947021484375,-0.07476806640625,-0.366363525390625,1,1.0,1.0,1.0,1.0,55.00
2022-11-23 20:20:39.945,1.1182072,0.22708745,0.08629177,1.1412365,1.0064833,0.2865692,0.08915658,0.9156913,0.94147074,0.24325393,0.30007374,1.0160247,0.22292455,-0.2050936,-0.14848551,0.19407362,-0.2330039,-0.5492004,-0.64850765,-0.06831827,815.12823,807.8755,799.011,804.65204,819.5604,-0.18927001953125,0.00848388671875,1.01080322265625,3.401947021484375,-0.07476806640625,-0.366363525390625,1,1.0,1.0,1.0,1.0,55.00
2022-11-23 20:20:39.945,1.1182072,0.22708745,0.08629177,1.1412365,1.0064833,0.2865692,0.08915658,0.9156913,0.94147074,0.24325393,0.30007374,1.0160247,0.22292455,-0.2050936,-0.14848551,0.19407362,-0.2330039,-0.5492004,-0.64850765,-0.06831827,767.1795,808.68134,796.99634,776.4469,666.4469,-0.18927001953125,0.00848388671875,1.01080322265625,3.401947021484375,-0.07476806640625,-0.366363525390625,1,1.0,1.0,1.0,1.0,55.00
2022-11-23 20:20:39.945,1.1182072,0.22708745,0.08629177,1.1412365,1.0064833,0.2865692,0.08915658,0.9156913,0.94147074,0.24325393,0.30007374,1.0160247,0.22292455,-0.2050936,-0.14848551,0.19407362,-0.2330039,-0.5492004,-0.64850765,-0.06831827,770.0,809.0842,796.99634,780.07324,637.4359,-0.18927001953125,0.00848388671875,1.01080322265625,3.401947021484375,-0.07476806640625,-0.366363525390625,1,1.0,1.0,1.0,1.0,55.00
2022-11-23 20:20:39.945,1.1182072,0.22708745,0.08629177,1.1412365,1.0064833,0.2865692,0.08915658,0.9156913,0.94147074,0.24325393,0.30007374,1.0160247,0.22292455,-0.2050936,-0.14848551,0.19407362,-0.2330039,-0.5492004,-0.64850765,-0.06831827,816.337,807.8755,797.3993,807.47253,763.95605,-0.18927001953125,0.00848388671875,1.01080322265625,3.401947021484375,-0.07476806640625,-0.366363525390625,1,1.0,1.0,1.0,1.0,55.00
2022-11-23 20:20:39.946,1.1182072,0.22708745,0.08629177,1.1412365,1.0064833,0.2865692,0.08915658,0.9156913,0.94147074,0.24325393,0.30007374,1.0160247,0.22292455,-0.2050936,-0.14848551,0.19407362,-0.2330039,-0.5492004,-0.64850765,-0.06831827,818.3516,808.68134,797.3993,806.26373,922.3077,-0.18927001953125,0.00848388671875,1.01080322265625,3.401947021484375,-0.07476806640625,-0.366363525390625,1,1.0,1.0,1.0,1.0,55.00
2022-11-23 20:20:39.946,1.1182072,0.22708745,0.08629177,1.1412365,1.0064833,0.2865692,0.08915658,0.9156913,0.94147074,0.24325393,0.30007374,1.0160247,0.22292455,-0.2050936,-0.14848551,0.19407362,-0.2330039,-0.5492004,-0.64850765,-0.06831827,776.8498,806.26373,796.1905,781.28204,1004.10254,-0.18927001953125,0.00848388671875,1.01080322265625,3.401947021484375,-0.07476806640625,-0.366363525390625,1,1.0,1.0,1.0,1.0,55.00
2022-11-23 20:20:39.947,1.1182072,0.22708745,0.08629177,1.1412365,1.0064833,0.2865692,0.08915658,0.9156913,0.94147074,0.24325393,0.30007374,1.0160247,0.22292455,-0.2050936,-0.14848551,0.19407362,-0.2330039,-0.5492004,-0.64850765,-0.06831827,770.0,805.4579,797.3993,773.22345,803.0403,-0.18927001953125,0.00848388671875,1.01080322265625,3.401947021484375,-0.07476806640625,-0.366363525390625,1,1.0,1.0,1.0,1.0,55.00
2022-11-23 20:20:39.947,1.1182072,0.22708745,0.08629177,1.1412365,1.0064833,0.2865692,0.08915658,0.9156913,0.94147074,0.24325393,0.30007374,1.0160247,0.22292455,-0.2050936,-0.14848551,0.19407362,-0.2330039,-0.5492004,-0.64850765,-0.06831827,806.26373,805.4579,798.60803,796.5934,810.293,-0.18927001953125,0.00848388671875,1.01080322265625,3.401947021484375,-0.07476806640625,-0.366363525390625,1,1.0,1.0,1.0,1.0,55.00
2022-11-23 20:20:39.947,1.1182072,0.22708745,0.08629177,1.1412365,1.0064833,0.2865692,0.08915658,0.9156913,0.94147074,0.24325393,0.30007374,1.0160247,0.22292455,-0.2050936,-0.14848551,0.19407362,-0.2330039,-0.5492004,-0.64850765,-0.06831827,819.5604,799.81683,796.5934,807.47253,1002.0879,-0.18927001953125,0.00848388671875,1.01080322265625,3.401947021484375,-0.07476806640625,-0.366363525390625,1,1.0,1.0,1.0,1.0,55.00
2022-11-23 20:20:39.969,1.1182072,0.22708745,0.08629177,1.1412365,1.0064833,0.2865692,0.08915658,0.9156913,0.94147074,0.24325393,0.30007374,1.0160247,0.22292455,-0.2050936,-0.14848551,0.19407362,-0.2330039,-0.5492004,-0.64850765,-0.06831827,782.8938,796.99634,797.3993,782.0879,915.8608,-0.20086669921875,0.01080322265625,0.995849609375,4.62066650390625,2.011260986328125,-2.265472412109375,1,1.0,1.0,1.0,1.0,55.00
2022-11-23 20:20:39.970,1.1182072,0.22708745,0.08629177,1.1412365,1.0064833,0.2865692,0.08915658,0.9156913,0.94147074,0.24325393,0.30007374,1.0160247,0.22292455,-0.2050936,-0.14848551,0.19407362,-0.2330039,-0.5492004,-0.64850765,-0.06831827,759.92676,796.99634,799.011,763.95605,716.4103,-0.20086669921875,0.01080322265625,0.995849609375,4.62066650390625,2.011260986328125,-2.265472412109375,1,1.0,1.0,1.0,1.0,55.00
2022-11-23 20:20:39.970,1.1182072,0.22708745,0.08629177,1.1412365,1.0064833,0.2865692,0.08915658,0.9156913,0.94147074,0.24325393,0.30007374,1.0160247,0.22292455,-0.2050936,-0.14848551,0.19407362,-0.2330039,-0.5492004,-0.64850765,-0.06831827,795.38464,796.1905,800.2198,787.326,787.326,-0.20086669921875,0.01080322265625,0.995849609375,4.62066650390625,2.011260986328125,-2.265472412109375,1,1.0,1.0,1.0,1.0,55.00
2022-11-23 20:20:39.970,1.1182072,0.22708745,0.08629177,1.1412365,1.0064833,0.2865692,0.08915658,0.9156913,0.94147074,0.24325393,0.30007374,1.0160247,0.22292455,-0.2050936,-0.14848551,0.19407362,-0.2330039,-0.5492004,-0.64850765,-0.06831827,831.6484,799.011,797.8022,807.47253,966.2271,-0.20086669921875,0.01080322265625,0.995849609375,4.62066650390625,2.011260986328125,-2.265472412109375,1,1.0,1.0,1.0,1.0,55.00
2022-11-23 20:20:39.971,1.1182072,0.22708745,0.08629177,1.1412365,1.0064833,0.2865692,0.08915658,0.9156913,0.94147074,0.24325393,0.30007374,1.0160247,0.22292455,-0.2050936,-0.14848551,0.19407362,-0.2330039,-0.5492004,-0.64850765,-0.06831827,812.71063,800.6227,796.99634,790.54944,802.23444,-0.20086669921875,0.01080322265625,0.995849609375,4.62066650390625,2.011260986328125,-2.265472412109375,1,1.0,1.0,1.0,1.0,55.00
2022-11-23 20:20:39.971,1.1182072,0.22708745,0.08629177,1.1412365,1.0064833,0.2865692,0.08915658,0.9156913,0.94147074,0.24325393,0.30007374,1.0160247,0.22292455,-0.2050936,-0.14848551,0.19407362,-0.2330039,-0.5492004,-0.64850765,-0.06831827,772.4176,798.60803,801.02563,776.04395,606.4103,-0.20086669921875,0.01080322265625,0.995849609375,4.62066650390625,2.011260986328125,-2.265472412109375,1,1.0,1.0,1.0,1.0,55.00
2022-11-23 20:20:39.971,1.1182072,0.22708745,0.08629177,1.1412365,1.0064833,0.2865692,0.08915658,0.9156913,0.94147074,0.24325393,0.30007374,1.0160247,0.22292455,-0.2050936,-0.14848551,0.19407362,-0.2330039,-0.5492004,-0.64850765,-0.06831827,780.07324,798.20514,801.4286,789.7436,690.2198,-0.20086669921875,0.01080322265625,0.995849609375,4.62066650390625,2.011260986328125,-2.265472412109375,1,1.0,1.0,1.0,1.0,55.00
2022-11-23 20:20:39.971,1.1182072,0.22708745,0.08629177,1.1412365,1.0064833,0.2865692,0.08915658,0.9156913,0.94147074,0.24325393,0.30007374,1.0160247,0.22292455,-0.2050936,-0.14848551,0.19407362,-0.2330039,-0.5492004,-0.64850765,-0.06831827,825.6044,800.2198,801.8315,827.2161,967.8388,-0.20086669921875,0.01080322265625,0.995849609375,4.62066650390625,2.011260986328125,-2.265472412109375,1,1.0,1.0,1.0,1.0,55.00
2022-11-23 20:20:39.972,1.1182072,0.22708745,0.08629177,1.1412365,1.0064833,0.2865692,0.08915658,0.9156913,0.94147074,0.24325393,0.30007374,1.0160247,0.22292455,-0.2050936,-0.14848551,0.19407362,-0.2330039,-0.5492004,-0.64850765,-0.06831827,821.5751,802.6374,805.4579,821.1722,998.86444,-0.20086669921875,0.01080322265625,0.995849609375,4.62066650390625,2.011260986328125,-2.265472412109375,1,1.0,1.0,1.0,1.0,55.00
2022-11-23 20:20:39.972,1.1182072,0.22708745,0.08629177,1.1412365,1.0064833,0.2865692,0.08915658,0.9156913,0.94147074,0.24325393,0.30007374,1.0160247,0.22292455,-0.2050936,-0.14848551,0.19407362,-0.2330039,-0.5492004,-0.64850765,-0.06831827,776.4469,800.2198,805.8608,784.5055,670.4762,-0.20086669921875,0.01080322265625,0.995849609375,4.62066650390625,2.011260986328125,-2.265472412109375,1,1.0,1.0,1.0,1.0,55.00
2022-11-23 20:20:39.972,1.1182072,0.22708745,0.08629177,1.1412365,1.0064833,0.2865692,0.08915658,0.9156913,0.94147074,0.24325393,0.30007374,1.0160247,0.22292455,-0.2050936,-0.14848551,0.19407362,-0.2330039,-0.5492004,-0.64850765,-0.06831827,773.6264,796.5934,805.8608,788.1319,594.3223,-0.20086669921875,0.01080322265625,0.995849609375,4.62066650390625,2.011260986328125,-2.265472412109375,1,1.0,1.0,1.0,1.0,55.00
2022-11-23 20:20:39.972,1.1768767,0.2629095,0.085906126,1.1697438,1.0729185,0.34786028,0.14348032,0.9407384,0.948143,0.2442704,0.34624413,1.0160247,0.2216276,-0.18392523,-0.13743441,0.20272155,-0.22592933,-0.53734803,-0.6563319,-0.06173486,816.337,796.5934,809.89014,828.022,844.1392,-0.20086669921875,0.01080322265625,0.995849609375,4.62066650390625,2.011260986328125,-2.265472412109375,1,1.0,1.0,1.0,1.0,55.00
2022-11-23 20:20:40.017,1.1768767,0.2629095,0.085906126,1.1697438,1.0729185,0.34786028,0.14348032,0.9407384,0.948143,0.2442704,0.34624413,1.0160247,0.2216276,-0.18392523,-0.13743441,0.20272155,-0.22592933,-0.53734803,-0.6563319,-0.06173486,825.2015,797.3993,807.0696,826.4103,867.1062,-0.21728515625,0.01605224609375,1.00042724609375,5.443115234375,2.295379638671875,-2.310333251953125,1,1.0,1.0,1.0,1.0,55.00
2022-11-23 20:20:40.018,1.1768767,0.2629095,0.085906126,1.1697438,1.0729185,0.34786028,0.14348032,0.9407384,0.948143,0.2442704,0.34624413,1.0160247,0.2216276,-0.18392523,-0.13743441,0.20272155,-0.22592933,-0.53734803,-0.6563319,-0.06173486,783.69965,796.99634,802.6374,795.38464,630.18317,-0.21728515625,0.01605224609375,1.00042724609375,5.443115234375,2.295379638671875,-2.310333251953125,1,1.0,1.0,1.0,1.0,55.00
2022-11-23 20:20:40.019,1.1768767,0.2629095,0.085906126,1.1697438,1.0729185,0.34786028,0.14348032,0.9407384,0.948143,0.2442704,0.34624413,1.0160247,0.2216276,-0.18392523,-0.13743441,0.20272155,-0.22592933,-0.53734803,-0.6563319,-0.06173486,769.19415,796.5934,806.6667,795.78754,578.60803,-0.21728515625,0.01605224609375,1.00042724609375,5.443115234375,2.295379638671875,-2.310333251953125,1,1.0,1.0,1.0,1.0,55.00
2022-11-23 20:20:40.019,1.1768767,0.2629095,0.085906126,1.1697438,1.0729185,0.34786028,0.14348032,0.9407384,0.948143,0.2442704,0.34624413,1.0160247,0.2216276,-0.18392523,-0.13743441,0.20272155,-0.22592933,-0.53734803,-0.6563319,-0.06173486,806.6667,800.2198,811.50183,821.978,752.674,-0.21728515625,0.01605224609375,1.00042724609375,5.443115234375,2.295379638671875,-2.310333251953125,1,1.0,1.0,1.0,1.0,55.00
2022-11-23 20:20:40.019,1.1768767,0.2629095,0.085906126,1.1697438,1.0729185,0.34786028,0.14348032,0.9407384,0.948143,0.2442704,0.34624413,1.0160247,0.2216276,-0.18392523,-0.13743441,0.20272155,-0.22592933,-0.53734803,-0.6563319,-0.06173486,840.9158,805.4579,811.50183,832.8571,919.89014,-0.21728515625,0.01605224609375,1.00042724609375,5.443115234375,2.295379638671875,-2.310333251953125,1,1.0,1.0,1.0,1.0,55.00
2022-11-23 20:20:40.020,1.1768767,0.2629095,0.085906126,1.1697438,1.0729185,0.34786028,0.14348032,0.9407384,0.948143,0.2442704,0.34624413,1.0160247,0.2216276,-0.18392523,-0.13743441,0.20272155,-0.22592933,-0.53734803,-0.6563319,-0.06173486,812.3077,801.8315,811.9048,814.7253,850.58606,-0.21728515625,0.01605224609375,1.00042724609375,5.443115234375,2.295379638671875,-2.310333251953125,1,1.0,1.0,1.0,1.0,55.00
2022-11-23 20:20:40.020,1.1768767,0.2629095,0.085906126,1.1697438,1.0729185,0.34786028,0.14348032,0.9407384,0.948143,0.2442704,0.34624413,1.0160247,0.2216276,-0.18392523,-0.13743441,0.20272155,-0.22592933,-0.53734803,-0.6563319,-0.06173486,774.83514,800.6227,812.3077,803.0403,787.72894,-0.21728515625,0.01605224609375,1.00042724609375,5.443115234375,2.295379638671875,-2.310333251953125,1,1.0,1.0,1.0,1.0,55.00
2022-11-23 20:20:40.020,1.1768767,0.2629095,0.085906126,1.1697438,1.0729185,0.34786028,0.14348032,0.9407384,0.948143,0.2442704,0.34624413,1.0160247,0.2216276,-0.18392523,-0.13743441,0.20272155,-0.22592933,-0.53734803,-0.6563319,-0.06173486,797.8022,797.3993,810.696,819.9634,988.7912,-0.21728515625,0.01605224609375,1.00042724609375,5.443115234375,2.295379638671875,-2.310333251953125,1,1.0,1.0,1.0,1.0,55.00
2022-11-23 20:20:40.020,1.1768767,0.2629095,0.085906126,1.1697438,1.0729185,0.34786028,0.14348032,0.9407384,0.948143,0.2442704,0.34624413,1.0160247,0.2216276,-0.18392523,-0.13743441,0.20272155,-0.22592933,-0.53734803,-0.6563319,-0.06173486,831.6484,794.17584,809.4872,834.0659,927.9487,-0.21728515625,0.01605224609375,1.00042724609375,5.443115234375,2.295379638671875,-2.310333251953125,1,1.0,1.0,1.0,1.0,55.00
2022-11-23 20:20:40.020,1.1768767,0.2629095,0.085906126,1.1697438,1.0729185,0.34786028,0.14348032,0.9407384,0.948143,0.2442704,0.34624413,1.0160247,0.2216276,-0.18392523,-0.13743441,0.20272155,-0.22592933,-0.53734803,-0.6563319,-0.06173486,819.5604,798.60803,806.6667,814.3223,737.76556,-0.21728515625,0.01605224609375,1.00042724609375,5.443115234375,2.295379638671875,-2.310333251953125,1,1.0,1.0,1.0,1.0,55.00
2022-11-23 20:20:40.021,1.1768767,0.2629095,0.085906126,1.1697438,1.0729185,0.34786028,0.14348032,0.9407384,0.948143,0.2442704,0.34624413,1.0160247,0.2216276,-0.18392523,-0.13743441,0.20272155,-0.22592933,-0.53734803,-0.6563319,-0.06173486,785.7143,805.05493,808.2784,785.31134,722.8571,-0.21728515625,0.01605224609375,1.00042724609375,5.443115234375,2.295379638671875,-2.310333251953125,1,1.0,1.0,1.0,1.0,55.00
2022-11-23 20:20:40.021,1.1768767,0.2629095,0.085906126,1.1697438,1.0729185,0.34786028,0.14348032,0.9407384,0.948143,0.2442704,0.34624413,1.0160247,0.2216276,-0.18392523,-0.13743441,0.20272155,-0.22592933,-0.53734803,-0.6563319,-0.06173486,792.1612,809.0842,807.0696,789.7436,800.2198,-0.21728515625,0.01605224609375,1.00042724609375,5.443115234375,2.295379638671875,-2.310333251953125,1,1.0,1.0,1.0,1.0,55.00
2022-11-23 20:20:40.066,1.1768767,0.2629095,0.085906126,1.1697438,1.0729185,0.34786028,0.14348032,0.9407384,0.948143,0.2442704,0.34624413,1.0160247,0.2216276,-0.18392523,-0.13743441,0.20272155,-0.22592933,-0.53734803,-0.6563319,-0.06173486,832.8571,807.0696,799.81683,818.7546,1025.8608,-0.22406005859375,0.005859375,0.99591064453125,4.000091552734375,1.54022216796875,-4.717864990234375,1,1.0,1.0,1.0,1.0,55.00
2022-11-23 20:20:40.066,1.1768767,0.2629095,0.085906126,1.1697438,1.0729185,0.34786028,0.14348032,0.9407384,0.948143,0.2442704,0.34624413,1.0160247,0.2216276,-0.18392523,-0.13743441,0.20272155,-0.22592933,-0.53734803,-0.6563319,-0.06173486,822.7839,803.44324,799.81683,818.3516,1027.8755,-0.22406005859375,0.005859375,0.99591064453125,4.000091552734375,1.54022216796875,-4.717864990234375,1,1.0,1.0,1.0,1.0,55.00
2022-11-23 20:20:40.066,1.1768767,0.2629095,0.085906126,1.1697438,1.0729185,0.34786028,0.14348032,0.9407384,0.948143,0.2442704,0.34624413,1.0160247,0.2216276,-0.18392523,-0.13743441,0.20272155,-0.22592933,-0.53734803,-0.6563319,-0.06173486,775.64105,803.44324,800.6227,785.31134,871.13556,-0.22406005859375,0.005859375,0.99591064453125,4.000091552734375,1.54022216796875,-4.717864990234375,1,1.0,1.0,1.0,1.0,55.00
2022-11-23 20:20:40.067,1.1768767,0.2629095,0.085906126,1.1697438,1.0729185,0.34786028,0.14348032,0.9407384,0.948143,0.2442704,0.34624413,1.0160247,0.2216276,-0.18392523,-0.13743441,0.20272155,-0.22592933,-0.53734803,-0.6563319,-0.06173486,777.6557,806.26373,798.60803,779.67035,794.57874,-0.22406005859375,0.005859375,0.99591064453125,4.000091552734375,1.54022216796875,-4.717864990234375,1,1.0,1.0,1.0,1.0,55.00
2022-11-23 20:20:40.067,1.1768767,0.2629095,0.085906126,1.1697438,1.0729185,0.34786028,0.14348032,0.9407384,0.948143,0.2442704,0.34624413,1.0160247,0.2216276,-0.18392523,-0.13743441,0.20272155,-0.22592933,-0.53734803,-0.6563319,-0.06173486,815.5311,807.8755,799.81683,803.8461,711.978,-0.22406005859375,0.005859375,0.99591064453125,4.000091552734375,1.54022216796875,-4.717864990234375,1,1.0,1.0,1.0,1.0,55.00
2022-11-23 20:20:40.067,1.1768767,0.2629095,0.085906126,1.1697438,1.0729185,0.34786028,0.14348032,0.9407384,0.948143,0.2442704,0.34624413,1.0160247,0.2216276,-0.18392523,-0.13743441,0.20272155,-0.22592933,-0.53734803,-0.6563319,-0.06173486,827.619,806.26373,800.2198,809.89014,791.3553,-0.22406005859375,0.005859375,0.99591064453125,4.000091552734375,1.54022216796875,-4.717864990234375,1,1.0,1.0,1.0,1.0,55.00
2022-11-23 20:20:40.067,1.1768767,0.2629095,0.085906126,1.1697438,1.0729185,0.34786028,0.14348032,0.9407384,0.948143,0.2442704,0.34624413,1.0160247,0.2216276,-0.18392523,-0.13743441,0.20272155,-0.22592933,-0.53734803,-0.6563319,-0.06173486,796.99634,805.8608,805.05493,794.57874,877.5824,-0.22406005859375,0.005859375,0.99591064453125,4.000091552734375,1.54022216796875,-4.717864990234375,1,1.0,1.0,1.0,1.0,55.00
2022-11-23 20:20:40.068,1.1768767,0.2629095,0.085906126,1.1697438,1.0729185,0.34786028,0.14348032,0.9407384,0.948143,0.2442704,0.34624413,1.0160247,0.2216276,-0.18392523,-0.13743441,0.20272155,-0.22592933,-0.53734803,-0.6563319,-0.06173486,772.8205,808.2784,805.05493,784.5055,805.05493,-0.22406005859375,0.005859375,0.99591064453125,4.000091552734375,1.54022216796875,-4.717864990234375,1,1.0,1.0,1.0,1.0,55.00
2022-11-23 20:20:40.068,1.1768767,0.2629095,0.085906126,1.1697438,1.0729185,0.34786028,0.14348032,0.9407384,0.948143,0.2442704,0.34624413,1.0160247,0.2216276,-0.18392523,-0.13743441,0.20272155,-0.22592933,-0.53734803,-0.6563319,-0.06173486,811.0989,805.8608,800.2198,812.3077,693.8461,-0.22406005859375,0.005859375,0.99591064453125,4.000091552734375,1.54022216796875,-4.717864990234375,1,1.0,1.0,1.0,1.0,55.00
2022-11-23 20:20:40.068,1.1768767,0.2629095,0.085906126,1.1697438,1.0729185,0.34786028,0.14348032,0.9407384,0.948143,0.2442704,0.34624413,1.0160247,0.2216276,-0.18392523,-0.13743441,0.20272155,-0.22592933,-0.53734803,-0.6563319,-0.06173486,837.6923,802.23444,803.8461,826.8132,792.5641,-0.22406005859375,0.005859375,0.99591064453125,4.000091552734375,1.54022216796875,-4.717864990234375,1,1.0,1.0,1.0,1.0,55.00
2022-11-23 20:20:40.068,1.1768767,0.2629095,0.085906126,1.1697438,1.0729185,0.34786028,0.14348032,0.9407384,0.948143,0.2442704,0.34624413,1.0160247,0.2216276,-0.18392523,-0.13743441,0.20272155,-0.22592933,-0.53734803,-0.6563319,-0.06173486,801.8315,802.6374,802.23444,797.8022,791.75824,-0.22406005859375,0.005859375,0.99591064453125,4.000091552734375,1.54022216796875,-4.717864990234375,1,1.0,1.0,1.0,1.0,55.00
2022-11-23 20:20:40.069,1.1768767,0.2629095,0.085906126,1.1697438,1.0729185,0.34786028,0.14348032,0.9407384,0.948143,0.2442704,0.34624413,1.0160247,0.2216276,-0.18392523,-0.13743441,0.20272155,-0.22592933,-0.53734803,-0.6563319,-0.06173486,770.80585,806.26373,801.8315,779.67035,594.3223,-0.22406005859375,0.005859375,0.99591064453125,4.000091552734375,1.54022216796875,-4.717864990234375,1,1.0,1.0,1.0,1.0,55.00
2022-11-23 20:20:40.128,1.1768767,0.2629095,0.085906126,1.1697438,1.0729185,0.34786028,0.14348032,0.9407384,0.948143,0.2442704,0.34624413,1.0160247,0.2216276,-0.18392523,-0.13743441,0.20272155,-0.22592933,-0.53734803,-0.6563319,-0.06173486,783.69965,803.8461,806.6667,795.38464,629.3773,-0.22406005859375,0.005859375,0.99591064453125,4.000091552734375,1.54022216796875,-4.717864990234375,1,1.0,1.0,1.0,1.0,55.00
2022-11-23 20:20:40.128,1.2188646,0.29717937,0.08515711,1.1995559,1.139287,0.40137196,0.20873661,0.967081,0.9900358,0.20649166,0.36503756,1.0160247,0.22117504,-0.155527,-0.13548708,0.21129367,-0.22454861,-0.52607864,-0.6695635,-0.055432204,818.3516,799.81683,805.05493,816.337,849.7802,-0.22406005859375,0.005859375,0.99591064453125,4.000091552734375,1.54022216796875,-4.717864990234375,1,1.0,1.0,1.0,1.0,55.00
2022-11-23 20:20:40.130,1.2188646,0.29717937,0.08515711,1.1995559,1.139287,0.40137196,0.20873661,0.967081,0.9900358,0.20649166,0.36503756,1.0160247,0.22117504,-0.155527,-0.13548708,0.21129367,-0.22454861,-0.52607864,-0.6695635,-0.055432204,815.9341,799.41394,803.0403,804.65204,828.4249,-0.22406005859375,0.005859375,0.99591064453125,4.000091552734375,1.54022216796875,-4.717864990234375,1,1.0,1.0,1.0,1.0,55.00
2022-11-23 20:20:40.130,1.2188646,0.29717937,0.08515711,1.1995559,1.139287,0.40137196,0.20873661,0.967081,0.9900358,0.20649166,0.36503756,1.0160247,0.22117504,-0.155527,-0.13548708,0.21129367,-0.22454861,-0.52607864,-0.6695635,-0.055432204,775.64105,799.41394,802.23444,784.10254,695.05493,-0.22406005859375,0.005859375,0.99591064453125,4.000091552734375,1.54022216796875,-4.717864990234375,1,1.0,1.0,1.0,1.0,55.00
2022-11-23 20:20:40.130,1.2188646,0.29717937,0.08515711,1.1995559,1.139287,0.40137196,0.20873661,0.967081,0.9900358,0.20649166,0.36503756,1.0160247,0.22117504,-0.155527,-0.13548708,0.21129367,-0.22454861,-0.52607864,-0.6695635,-0.055432204,773.22345,798.60803,801.02563,790.54944,626.1539,-0.22406005859375,0.005859375,0.99591064453125,4.000091552734375,1.54022216796875,-4.717864990234375,1,1.0,1.0,1.0,1.0,55.00
2022-11-23 20:20:40.131,1.2188646,0.29717937,0.08515711,1.1995559,1.139287,0.40137196,0.20873661,0.967081,0.9900358,0.20649166,0.36503756,1.0160247,0.22117504,-0.155527,-0.13548708,0.21129367,-0.22454861,-0.52607864,-0.6695635,-0.055432204,815.12823,796.99634,800.6227,820.7692,833.663,-0.22406005859375,0.005859375,0.99591064453125,4.000091552734375,1.54022216796875,-4.717864990234375,1,1.0,1.0,1.0,1.0,55.00
2022-11-23 20:20:40.131,1.2188646,0.29717937,0.08515711,1.1995559,1.139287,0.40137196,0.20873661,0.967081,0.9900358,0.20649166,0.36503756,1.0160247,0.22117504,-0.155527,-0.13548708,0.21129367,-0.22454861,-0.52607864,-0.6695635,-0.055432204,819.15753,796.99634,801.8315,825.2015,1241.0256,-0.22406005859375,0.005859375,0.99591064453125,4.000091552734375,1.54022216796875,-4.717864990234375,1,1.0,1.0,1.0,1.0,55.00
2022-11-23 20:20:40.131,1.2188646,0.29717937,0.08515711,1.1995559,1.139287,0.40137196,0.20873661,0.967081,0.9900358,0.20649166,0.36503756,1.0160247,0.22117504,-0.155527,-0.13548708,0.21129367,-0.22454861,-0.52607864,-0.6695635,-0.055432204,780.07324,795.78754,798.60803,790.54944,956.9597,-0.22406005859375,0.005859375,0.99591064453125,4.000091552734375,1.54022216796875,-4.717864990234375,1,1.0,1.0,1.0,1.0,55.00
2022-11-23 20:20:40.131,1.2188646,0.29717937,0.08515711,1.1995559,1.139287,0.40137196,0.20873661,0.967081,0.9900358,0.20649166,0.36503756,1.0160247,0.22117504,-0.155527,-0.13548708,0.21129367,-0.22454861,-0.52607864,-0.6695635,-0.055432204,774.43225,794.57874,797.3993,783.69965,568.5348,-0.22406005859375,0.005859375,0.99591064453125,4.000091552734375,1.54022216796875,-4.717864990234375,1,1.0,1.0,1.0,1.0,55.00
2022-11-23 20:20:40.132,1.2188646,0.29717937,0.08515711,1.1995559,1.139287,0.40137196,0.20873661,0.967081,0.9900358,0.20649166,0.36503756,1.0160247,0.22117504,-0.155527,-0.13548708,0.21129367,-0.22454861,-0.52607864,-0.6695635,-0.055432204,808.68134,796.5934,795.38464,813.5165,686.99634,-0.22406005859375,0.005859375,0.99591064453125,4.000091552734375,1.54022216796875,-4.717864990234375,1,1.0,1.0,1.0,1.0,55.00
2022-11-23 20:20:40.132,1.2188646,0.29717937,0.08515711,1.1995559,1.139287,0.40137196,0.20873661,0.967081,0.9900358,0.20649166,0.36503756,1.0160247,0.22117504,-0.155527,-0.13548708,0.21129367,-0.22454861,-0.52607864,-0.6695635,-0.055432204,822.381,797.8022,792.1612,816.7399,813.91943,-0.22406005859375,0.005859375,0.99591064453125,4.000091552734375,1.54022216796875,-4.717864990234375,1,1.0,1.0,1.0,1.0,55.00
2022-11-23 20:20:40.132,1.2188646,0.29717937,0.08515711,1.1995559,1.139287,0.40137196,0.20873661,0.967081,0.9900358,0.20649166,0.36503756,1.0160247,0.22117504,-0.155527,-0.13548708,0.21129367,-0.22454861,-0.52607864,-0.6695635,-0.055432204,797.8022,797.3993,796.5934,796.99634,732.1245,-0.22406005859375,0.005859375,0.99591064453125,4.000091552734375,1.54022216796875,-4.717864990234375,1,1.0,1.0,1.0,1.0,55.00
2022-11-23 20:20:40.157,1.2188646,0.29717937,0.08515711,1.1995559,1.139287,0.40137196,0.20873661,0.967081,0.9900358,0.20649166,0.36503756,1.0160247,0.22117504,-0.155527,-0.13548708,0.21129367,-0.22454861,-0.52607864,-0.6695635,-0.055432204,777.25275,796.1905,797.3993,785.7143,612.8571,-0.1756591796875,0.0072021484375,1.00103759765625,2.594451904296875,-5.495452880859375,-4.14215087890625,1,1.0,1.0,1.0,1.0,55.00
2022-11-23 20:20:40.158,1.2188646,0.29717937,0.08515711,1.1995559,1.139287,0.40137196,0.20873661,0.967081,0.9900358,0.20649166,0.36503756,1.0160247,0.22117504,-0.155527,-0.13548708,0.21129367,-0.22454861,-0.52607864,-0.6695635,-0.055432204,800.2198,793.7729,794.9817,802.6374,704.7253,-0.1756591796875,0.0072021484375,1.00103759765625,2.594451904296875,-5.495452880859375,-4.14215087890625,1,1.0,1.0,1.0,1.0,55.00
2022-11-23 20:20:40.158,1.2188646,0.29717937,0.08515711,1.1995559,1.139287,0.40137196,0.20873661,0.967081,0.9900358,0.20649166,0.36503756,1.0160247,0.22117504,-0.155527,-0.13548708,0.21129367,-0.22454861,-0.52607864,-0.6695635,-0.055432204,833.663,796.99634,798.60803,824.7985,843.73627,-0.1756591796875,0.0072021484375,1.00103759765625,2.594451904296875,-5.495452880859375,-4.14215087890625,1,1.0,1.0,1.0,1.0,55.00
2022-11-23 20:20:40.158,1.2188646,0.29717937,0.08515711,1.1995559,1.139287,0.40137196,0.20873661,0.967081,0.9900358,0.20649166,0.36503756,1.0160247,0.22117504,-0.155527,-0.13548708,0.21129367,-0.22454861,-0.52607864,-0.6695635,-0.055432204,816.337,798.20514,802.6374,811.0989,750.2564,-0.1756591796875,0.0072021484375,1.00103759765625,2.594451904296875,-5.495452880859375,-4.14215087890625,1,1.0,1.0,1.0,1.0,55.00
2022-11-23 20:20:40.159,1.2188646,0.29717937,0.08515711,1.1995559,1.139287,0.40137196,0.20873661,0.967081,0.9900358,0.20649166,0.36503756,1.0160247,0.22117504,-0.155527,-0.13548708,0.21129367,-0.22454861,-0.52607864,-0.6695635,-0.055432204,778.0586,800.2198,804.2491,786.52014,618.9011,-0.1756591796875,0.0072021484375,1.00103759765625,2.594451904296875,-5.495452880859375,-4.14215087890625,1,1.0,1.0,1.0,1.0,55.00
2022-11-23 20:20:40.159,1.2188646,0.29717937,0.08515711,1.1995559,1.139287,0.40137196,0.20873661,0.967081,0.9900358,0.20649166,0.36503756,1.0160247,0.22117504,-0.155527,-0.13548708,0.21129367,-0.22454861,-0.52607864,-0.6695635,-0.055432204,795.38464,801.8315,804.2491,801.02563,789.7436,-0.1756591796875,0.0072021484375,1.00103759765625,2.594451904296875,-5.495452880859375,-4.14215087890625,1,1.0,1.0,1.0,1.0,55.00
2022-11-23 20:20:40.159,1.2188646,0.29717937,0.08515711,1.1995559,1.139287,0.40137196,0.20873661,0.967081,0.9900358,0.20649166,0.36503756,1.0160247,0.22117504,-0.155527,-0.13548708,0.21129367,-0.22454861,-0.52607864,-0.6695635,-0.055432204,821.1722,798.60803,802.23444,817.9487,982.74725,-0.1756591796875,0.0072021484375,1.00103759765625,2.594451904296875,-5.495452880859375,-4.14215087890625,1,1.0,1.0,1.0,1.0,55.00
2022-11-23 20:20:40.159,1.2188646,0.29717937,0.08515711,1.1995559,1.139287,0.40137196,0.20873661,0.967081,0.9900358,0.20649166,0.36503756,1.0160247,0.22117504,-0.155527,-0.13548708,0.21129367,-0.22454861,-0.52607864,-0.6695635,-0.055432204,809.4872,797.8022,800.6227,804.2491,915.8608,-0.1756591796875,0.0072021484375,1.00103759765625,2.594451904296875,-5.495452880859375,-4.14215087890625,1,1.0,1.0,1.0,1.0,55.00
2022-11-23 20:20:40.159,1.2188646,0.29717937,0.08515711,1.1995559,1.139287,0.40137196,0.20873661,0.967081,0.9900358,0.20649166,0.36503756,1.0160247,0.22117504,-0.155527,-0.13548708,0.21129367,-0.22454861,-0.52607864,-0.6695635,-0.055432204,779.67035,800.6227,799.011,773.6264,695.4579,-0.1756591796875,0.0072021484375,1.00103759765625,2.594451904296875,-5.495452880859375,-4.14215087890625,1,1.0,1.0,1.0,1.0,55.00
2022-11-23 20:20:40.160,1.2188646,0.29717937,0.08515711,1.1995559,1.139287,0.40137196,0.20873661,0.967081,0.9900358,0.20649166,0.36503756,1.0160247,0.22117504,-0.155527,-0.13548708,0.21129367,-0.22454861,-0.52607864,-0.6695635,-0.055432204,782.8938,803.8461,797.8022,778.46155,839.707,-0.1756591796875,0.0072021484375,1.00103759765625,2.594451904296875,-5.495452880859375,-4.14215087890625,1,1.0,1.0,1.0,1.0,55.00
2022-11-23 20:20:40.160,1.2188646,0.29717937,0.08515711,1.1995559,1.139287,0.40137196,0.20873661,0.967081,0.9900358,0.20649166,0.36503756,1.0160247,0.22117504,-0.155527,-0.13548708,0.21129367,-0.22454861,-0.52607864,-0.6695635,-0.055432204,818.3516,800.6227,798.60803,808.68134,1025.8608,-0.1756591796875,0.0072021484375,1.00103759765625,2.594451904296875,-5.495452880859375,-4.14215087890625,1,1.0,1.0,1.0,1.0,55.00
2022-11-23 20:20:40.160,1.2188646,0.29717937,0.08515711,1.1995559,1.139287,0.40137196,0.20873661,0.967081,0.9900358,0.20649166,0.36503756,1.0160247,0.22117504,-0.155527,-0.13548708,0.21129367,-0.22454861,-0.52607864,-0.6695635,-0.055432204,819.9634,801.02563,799.81683,806.26373,861.06226,-0.1756591796875,0.0072021484375,1.00103759765625,2.594451904296875,-5.495452880859375,-4.14215087890625,1,1.0,1.0,1.0,1.0,55.00
2022-11-23 20:20:40.207,1.2188646,0.29717937,0.08515711,1.1995559,1.139287,0.40137196,0.20873661,0.967081,0.9900358,0.20649166,0.36503756,1.0160247,0.22117504,-0.155527,-0.13548708,0.21129367,-0.22454861,-0.52607864,-0.6695635,-0.055432204,782.49084,803.8461,796.5934,777.25275,738.1685,-0.177978515625,0.003173828125,1.0093994140625,1.562652587890625,-4.897308349609375,1.054229736328125,1,1.0,1.0,1.0,1.0,55.00
2022-11-23 20:20:40.208,1.2188646,0.29717937,0.08515711,1.1995559,1.139287,0.40137196,0.20873661,0.967081,0.9900358,0.20649166,0.36503756,1.0160247,0.22117504,-0.155527,-0.13548708,0.21129367,-0.22454861,-0.52607864,-0.6695635,-0.055432204,768.3883,807.8755,799.011,771.6117,682.96704,-0.177978515625,0.003173828125,1.0093994140625,1.562652587890625,-4.897308349609375,1.054229736328125,1,1.0,1.0,1.0,1.0,55.00
2022-11-23 20:20:40.208,1.2188646,0.29717937,0.08515711,1.1995559,1.139287,0.40137196,0.20873661,0.967081,0.9900358,0.20649166,0.36503756,1.0160247,0.22117504,-0.155527,-0.13548708,0.21129367,-0.22454861,-0.52607864,-0.6695635,-0.055432204,797.3993,811.50183,805.8608,799.81683,753.8828,-0.177978515625,0.003173828125,1.0093994140625,1.562652587890625,-4.897308349609375,1.054229736328125,1,1.0,1.0,1.0,1.0,55.00
2022-11-23 20:20:40.208,1.2427953,0.31828272,0.08898526,1.2085788,1.1954831,0.4469705,0.2680972,1.0427469,1.0276264,0.14133598,0.36503756,1.0462933,0.22414899,-0.12620857,-0.14175321,0.21898986,-0.21895693,-0.5147654,-0.68490934,-0.060266946,827.619,810.696,803.44324,815.12823,820.7692,-0.177978515625,0.003173828125,1.0093994140625,1.562652587890625,-4.897308349609375,1.054229736328125,1,1.0,1.0,1.0,1.0,55.00
2022-11-23 20:20:40.210,1.2427953,0.31828272,0.08898526,1.2085788,1.1954831,0.4469705,0.2680972,1.0427469,1.0276264,0.14133598,0.36503756,1.0462933,0.22414899,-0.12620857,-0.14175321,0.21898986,-0.21895693,-0.5147654,-0.68490934,-0.060266946,798.60803,809.89014,801.8315,790.9524,777.25275,-0.177978515625,0.003173828125,1.0093994140625,1.562652587890625,-4.897308349609375,1.054229736328125,1,1.0,1.0,1.0,1.0,55.00
2022-11-23 20:20:40.210,1.2427953,0.31828272,0.08898526,1.2085788,1.1954831,0.4469705,0.2680972,1.0427469,1.0276264,0.14133598,0.36503756,1.0462933,0.22414899,-0.12620857,-0.14175321,0.21898986,-0.21895693,-0.5147654,-0.68490934,-0.060266946,766.3736,811.9048,803.8461,768.3883,737.3626,-0.177978515625,0.003173828125,1.0093994140625,1.562652587890625,-4.897308349609375,1.054229736328125,1,1.0,1.0,1.0,1.0,55.00
2022-11-23 20:20:40.210,1.2427953,0.31828272,0.08898526,1.2085788,1.1954831,0.4469705,0.2680972,1.0427469,1.0276264,0.14133598,0.36503756,1.0462933,0.22414899,-0.12620857,-0.14175321,0.21898986,-0.21895693,-0.5147654,-0.68490934,-0.060266946,791.75824,808.2784,801.02563,786.52014,756.30035,-0.177978515625,0.003173828125,1.0093994140625,1.562652587890625,-4.897308349609375,1.054229736328125,1,1.0,1.0,1.0,1.0,55.00
2022-11-23 20:20:40.211,1.2427953,0.31828272,0.08898526,1.2085788,1.1954831,0.4469705,0.2680972,1.0427469,1.0276264,0.14133598,0.36503756,1.0462933,0.22414899,-0.12620857,-0.14175321,0.21898986,-0.21895693,-0.5147654,-0.68490934,-0.060266946,827.619,806.6667,799.011,811.0989,839.304,-0.177978515625,0.003173828125,1.0093994140625,1.562652587890625,-4.897308349609375,1.054229736328125,1,1.0,1.0,1.0,1.0,55.00
2022-11-23 20:20:40.211,1.2427953,0.31828272,0.08898526,1.2085788,1.1954831,0.4469705,0.2680972,1.0427469,1.0276264,0.14133598,0.36503756,1.0462933,0.22414899,-0.12620857,-0.14175321,0.21898986,-0.21895693,-0.5147654,-0.68490934,-0.060266946,809.0842,807.0696,801.4286,795.38464,886.8498,-0.177978515625,0.003173828125,1.0093994140625,1.562652587890625,-4.897308349609375,1.054229736328125,1,1.0,1.0,1.0,1.0,55.00
2022-11-23 20:20:40.211,1.2427953,0.31828272,0.08898526,1.2085788,1.1954831,0.4469705,0.2680972,1.0427469,1.0276264,0.14133598,0.36503756,1.0462933,0.22414899,-0.12620857,-0.14175321,0.21898986,-0.21895693,-0.5147654,-0.68490934,-0.060266946,764.35895,806.26373,799.011,774.0293,1002.49084,-0.177978515625,0.003173828125,1.0093994140625,1.562652587890625,-4.897308349609375,1.054229736328125,1,1.0,1.0,1.0,1.0,55.00
2022-11-23 20:20:40.211,1.2427953,0.31828272,0.08898526,1.2085788,1.1954831,0.4469705,0.2680972,1.0427469,1.0276264,0.14133598,0.36503756,1.0462933,0.22414899,-0.12620857,-0.14175321,0.21898986,-0.21895693,-0.5147654,-0.68490934,-0.060266946,778.46155,807.47253,799.41394,788.1319,866.7033,-0.177978515625,0.003173828125,1.0093994140625,1.562652587890625,-4.897308349609375,1.054229736328125,1,1.0,1.0,1.0,1.0,55.00
2022-11-23 20:20:40.211,1.2427953,0.31828272,0.08898526,1.2085788,1.1954831,0.4469705,0.2680972,1.0427469,1.0276264,0.14133598,0.36503756,1.0462933,0.22414899,-0.12620857,-0.14175321,0.21898986,-0.21895693,-0.5147654,-0.68490934,-0.060266946,816.7399,804.65204,803.8461,807.47253,769.59705,-0.177978515625,0.003173828125,1.0093994140625,1.562652587890625,-4.897308349609375,1.054229736328125,1,1.0,1.0,1.0,1.0,55.00
2022-11-23 20:20:40.270,1.2427953,0.31828272,0.08898526,1.2085788,1.1954831,0.4469705,0.2680972,1.0427469,1.0276264,0.14133598,0.36503756,1.0462933,0.22414899,-0.12620857,-0.14175321,0.21898986,-0.21895693,-0.5147654,-0.68490934,-0.060266946,804.2491,799.41394,801.02563,799.41394,800.2198,-0.18878173828125,-0.0010986328125,1.0115966796875,0.3289794921875,-1.173858642578125,2.28790283203125,1,1.0,1.0,1.0,1.0,55.00
2022-11-23 20:20:40.270,1.2427953,0.31828272,0.08898526,1.2085788,1.1954831,0.4469705,0.2680972,1.0427469,1.0276264,0.14133598,0.36503756,1.0462933,0.22414899,-0.12620857,-0.14175321,0.21898986,-0.21895693,-0.5147654,-0.68490934,-0.060266946,770.80585,799.41394,799.81683,780.07324,648.71796,-0.18878173828125,-0.0010986328125,1.0115966796875,0.3289794921875,-1.173858642578125,2.28790283203125,1,1.0,1.0,1.0,1.0,55.00
2022-11-23 20:20:40.271,1.2427953,0.31828272,0.08898526,1.2085788,1.1954831,0.4469705,0.2680972,1.0427469,1.0276264,0.14133598,0.36503756,1.0462933,0.22414899,-0.12620857,-0.14175321,0.21898986,-0.21895693,-0.5147654,-0.68490934,-0.060266946,773.6264,800.6227,803.0403,792.5641,582.23444,-0.18878173828125,-0.0010986328125,1.0115966796875,0.3289794921875,-1.173858642578125,2.28790283203125,1,1.0,1.0,1.0,1.0,55.00
2022-11-23 20:20:40.271,1.2427953,0.31828272,0.08898526,1.2085788,1.1954831,0.4469705,0.2680972,1.0427469,1.0276264,0.14133598,0.36503756,1.0462933,0.22414899,-0.12620857,-0.14175321,0.21898986,-0.21895693,-0.5147654,-0.68490934,-0.060266946,815.12823,800.6227,805.8608,823.5897,734.1392,-0.18878173828125,-0.0010986328125,1.0115966796875,0.3289794921875,-1.173858642578125,2.28790283203125,1,1.0,1.0,1.0,1.0,55.00
2022-11-23 20:20:40.271,1.2427953,0.31828272,0.08898526,1.2085788,1.1954831,0.4469705,0.2680972,1.0427469,1.0276264,0.14133598,0.36503756,1.0462933,0.22414899,-0.12620857,-0.14175321,0.21898986,-0.21895693,-0.5147654,-0.68490934,-0.060266946,827.2161,802.6374,807.47253,823.1868,832.8571,-0.18878173828125,-0.0010986328125,1.0115966796875,0.3289794921875,-1.173858642578125,2.28790283203125,1,1.0,1.0,1.0,1.0,55.00
2022-11-23 20:20:40.272,1.2427953,0.31828272,0.08898526,1.2085788,1.1954831,0.4469705,0.2680972,1.0427469,1.0276264,0.14133598,0.36503756,1.0462933,0.22414899,-0.12620857,-0.14175321,0.21898986,-0.21895693,-0.5147654,-0.68490934,-0.060266946,797.3993,803.8461,807.0696,802.23444,855.0183,-0.18878173828125,-0.0010986328125,1.0115966796875,0.3289794921875,-1.173858642578125,2.28790283203125,1,1.0,1.0,1.0,1.0,55.00
2022-11-23 20:20:40.272,1.2427953,0.31828272,0.08898526,1.2085788,1.1954831,0.4469705,0.2680972,1.0427469,1.0276264,0.14133598,0.36503756,1.0462933,0.22414899,-0.12620857,-0.14175321,0.21898986,-0.21895693,-0.5147654,-0.68490934,-0.060266946,786.9231,803.8461,805.05493,799.011,856.2271,-0.18878173828125,-0.0010986328125,1.0115966796875,0.3289794921875,-1.173858642578125,2.28790283203125,1,1.0,1.0,1.0,1.0,55.00
2022-11-23 20:20:40.272,1.2427953,0.31828272,0.08898526,1.2085788,1.1954831,0.4469705,0.2680972,1.0427469,1.0276264,0.14133598,0.36503756,1.0462933,0.22414899,-0.12620857,-0.14175321,0.21898986,-0.21895693,-0.5147654,-0.68490934,-0.060266946,817.5458,805.05493,805.4579,821.5751,840.9158,-0.18878173828125,-0.0010986328125,1.0115966796875,0.3289794921875,-1.173858642578125,2.28790283203125,1,1.0,1.0,1.0,1.0,55.00
2022-11-23 20:20:40.272,1.2427953,0.31828272,0.08898526,1.2085788,1.1954831,0.4469705,0.2680972,1.0427469,1.0276264,0.14133598,0.36503756,1.0462933,0.22414899,-0.12620857,-0.14175321,0.21898986,-0.21895693,-0.5147654,-0.68490934,-0.060266946,840.10986,803.8461,805.05493,835.2747,1130.2197,-0.18878173828125,-0.0010986328125,1.0115966796875,0.3289794921875,-1.173858642578125,2.28790283203125,1,1.0,1.0,1.0,1.0,55.00
2022-11-23 20:20:40.273,1.2427953,0.31828272,0.08898526,1.2085788,1.1954831,0.4469705,0.2680972,1.0427469,1.0276264,0.14133598,0.36503756,1.0462933,0.22414899,-0.12620857,-0.14175321,0.21898986,-0.21895693,-0.5147654,-0.68490934,-0.060266946,813.91943,805.4579,806.26373,811.0989,1147.1428,-0.18878173828125,-0.0010986328125,1.0115966796875,0.3289794921875,-1.173858642578125,2.28790283203125,1,1.0,1.0,1.0,1.0,55.00
2022-11-23 20:20:40.273,1.2427953,0.31828272,0.08898526,1.2085788,1.1954831,0.4469705,0.2680972,1.0427469,1.0276264,0.14133598,0.36503756,1.0462933,0.22414899,-0.12620857,-0.14175321,0.21898986,-0.21895693,-0.5147654,-0.68490934,-0.060266946,784.90845,809.89014,808.2784,792.96704,794.9817,-0.18878173828125,-0.0010986328125,1.0115966796875,0.3289794921875,-1.173858642578125,2.28790283203125,1,1.0,1.0,1.0,1.0,55.00
2022-11-23 20:20:40.273,1.2427953,0.31828272,0.08898526,1.2085788,1.1954831,0.4469705,0.2680972,1.0427469,1.0276264,0.14133598,0.36503756,1.0462933,0.22414899,-0.12620857,-0.14175321,0.21898986,-0.21895693,-0.5147654,-0.68490934,-0.060266946,800.2198,809.0842,804.2491,809.89014,776.8498,-0.18878173828125,-0.0010986328125,1.0115966796875,0.3289794921875,-1.173858642578125,2.28790283203125,1,1.0,1.0,1.0,1.0,55.00
2022-11-23 20:20:40.294,1.2427953,0.31828272,0.08898526,1.2085788,1.1954831,0.4469705,0.2680972,1.0427469,1.0276264,0.14133598,0.36503756,1.0462933,0.22414899,-0.12620857,-0.14175321,0.21898986,-0.21895693,-0.5147654,-0.68490934,-0.060266946,836.08057,809.0842,805.05493,834.4689,918.2784,-0.20513916015625,-0.019287109375,0.9937744140625,-0.95703125,-0.3289794921875,-0.897216796875,1,1.0,1.0,1.0,1.0,55.00
2022-11-23 20:20:40.295,1.2427953,0.31828272,0.08898526,1.2085788,1.1954831,0.4469705,0.2680972,1.0427469,1.0276264,0.14133598,0.36503756,1.0462933,0.22414899,-0.12620857,-0.14175321,0.21898986,-0.21895693,-0.5147654,-0.68490934,-0.060266946,826.0073,811.0989,809.89014,820.3663,823.5897,-0.20513916015625,-0.019287109375,0.9937744140625,-0.95703125,-0.3289794921875,-0.897216796875,1,1.0,1.0,1.0,1.0,55.00
2022-11-23 20:20:40.295,1.2427953,0.31828272,0.08898526,1.2085788,1.1954831,0.4469705,0.2680972,1.0427469,1.0276264,0.14133598,0.36503756,1.0462933,0.22414899,-0.12620857,-0.14175321,0.21898986,-0.21895693,-0.5147654,-0.68490934,-0.060266946,783.2967,806.6667,807.47253,789.7436,587.47253,-0.20513916015625,-0.019287109375,0.9937744140625,-0.95703125,-0.3289794921875,-0.897216796875,1,1.0,1.0,1.0,1.0,55.00
2022-11-23 20:20:40.295,1.2427953,0.31828272,0.08898526,1.2085788,1.1954831,0.4469705,0.2680972,1.0427469,1.0276264,0.14133598,0.36503756,1.0462933,0.22414899,-0.12620857,-0.14175321,0.21898986,-0.21895693,-0.5147654,-0.68490934,-0.060266946,786.52014,799.81683,805.8608,797.8022,573.36993,-0.20513916015625,-0.019287109375,0.9937744140625,-0.95703125,-0.3289794921875,-0.897216796875,1,1.0,1.0,1.0,1.0,55.00
2022-11-23 20:20:40.296,1.2427953,0.31828272,0.08898526,1.2085788,1.1954831,0.4469705,0.2680972,1.0427469,1.0276264,0.14133598,0.36503756,1.0462933,0.22414899,-0.12620857,-0.14175321,0.21898986,-0.21895693,-0.5147654,-0.68490934,-0.060266946,821.978,786.9231,800.6227,829.2308,757.50916,-0.20513916015625,-0.019287109375,0.9937744140625,-0.95703125,-0.3289794921875,-0.897216796875,1,1.0,1.0,1.0,1.0,55.00
2022-11-23 20:20:40.296,1.2531413,0.32675165,0.093085214,1.2057898,1.2348166,0.48335344,0.31039298,1.0920459,1.0285239,0.12906602,0.36503756,1.0462933,0.23112935,-0.10356458,-0.15103044,0.2243528,-0.20322819,-0.5028965,-0.6967231,-0.06668766,833.663,789.7436,796.5934,838.49817,813.5165,-0.20513916015625,-0.019287109375,0.9937744140625,-0.95703125,-0.3289794921875,-0.897216796875,1,1.0,1.0,1.0,1.0,55.00
2022-11-23 20:20:40.297,1.2531413,0.32675165,0.093085214,1.2057898,1.2348166,0.48335344,0.31039298,1.0920459,1.0285239,0.12906602,0.36503756,1.0462933,0.23112935,-0.10356458,-0.15103044,0.2243528,-0.20322819,-0.5028965,-0.6967231,-0.06668766,796.1905,802.6374,794.9817,804.2491,641.4652,-0.20513916015625,-0.019287109375,0.9937744140625,-0.95703125,-0.3289794921875,-0.897216796875,1,1.0,1.0,1.0,1.0,55.00
2022-11-23 20:20:40.297,1.2531413,0.32675165,0.093085214,1.2057898,1.2348166,0.48335344,0.31039298,1.0920459,1.0285239,0.12906602,0.36503756,1.0462933,0.23112935,-0.10356458,-0.15103044,0.2243528,-0.20322819,-0.5028965,-0.6967231,-0.06668766,772.4176,807.8755,793.7729,777.25275,641.4652,-0.20513916015625,-0.019287109375,0.9937744140625,-0.95703125,-0.3289794921875,-0.897216796875,1,1.0,1.0,1.0,1.0,55.00
2022-11-23 20:20:40.297,1.2531413,0.32675165,0.093085214,1.2057898,1.2348166,0.48335344,0.31039298,1.0920459,1.0285239,0.12906602,0.36503756,1.0462933,0.23112935,-0.10356458,-0.15103044,0.2243528,-0.20322819,-0.5028965,-0.6967231,-0.06668766,799.011,809.89014,791.75824,794.9817,1028.6813,-0.20513916015625,-0.019287109375,0.9937744140625,-0.95703125,-0.3289794921875,-0.897216796875,1,1.0,1.0,1.0,1.0,55.00
2022-11-23 20:20:40.298,1.2531413,0.32675165,0.093085214,1.2057898,1.2348166,0.48335344,0.31039298,1.0920459,1.0285239,0.12906602,0.36503756,1.0462933,0.23112935,-0.10356458,-0.15103044,0.2243528,-0.20322819,-0.5028965,-0.6967231,-0.06668766,818.3516,809.0842,786.1172,801.8315,1012.1612,-0.20513916015625,-0.019287109375,0.9937744140625,-0.95703125,-0.3289794921875,-0.897216796875,1,1.0,1.0,1.0,1.0,55.00
2022-11-23 20:20:40.298,1.2531413,0.32675165,0.093085214,1.2057898,1.2348166,0.48335344,0.31039298,1.0920459,1.0285239,0.12906602,0.36503756,1.0462933,0.23112935,-0.10356458,-0.15103044,0.2243528,-0.20322819,-0.5028965,-0.6967231,-0.06668766,780.07324,811.50183,780.4762,760.7326,701.50183,-0.20513916015625,-0.019287109375,0.9937744140625,-0.95703125,-0.3289794921875,-0.897216796875,1,1.0,1.0,1.0,1.0,55.00
2022-11-23 20:20:40.298,1.2531413,0.32675165,0.093085214,1.2057898,1.2348166,0.48335344,0.31039298,1.0920459,1.0285239,0.12906602,0.36503756,1.0462933,0.23112935,-0.10356458,-0.15103044,0.2243528,-0.20322819,-0.5028965,-0.6967231,-0.06668766,750.65936,819.9634,780.87915,734.5421,557.25275,-0.20513916015625,-0.019287109375,0.9937744140625,-0.95703125,-0.3289794921875,-0.897216796875,1,1.0,1.0,1.0,1.0,55.00
2022-11-23 20:20:40.341,1.2531413,0.32675165,0.093085214,1.2057898,1.2348166,0.48335344,0.31039298,1.0920459,1.0285239,0.12906602,0.36503756,1.0462933,0.23112935,-0.10356458,-0.15103044,0.2243528,-0.20322819,-0.5028965,-0.6967231,-0.06668766,765.16486,826.0073,780.4762,749.85345,720.0366,-0.20513916015625,-0.019287109375,0.9937744140625,-0.95703125,-0.3289794921875,-0.897216796875,1,1.0,1.0,1.0,1.0,55.00
2022-11-23 20:20:40.341,1.2531413,0.32675165,0.093085214,1.2057898,1.2348166,0.48335344,0.31039298,1.0920459,1.0285239,0.12906602,0.36503756,1.0462933,0.23112935,-0.10356458,-0.15103044,0.2243528,-0.20322819,-0.5028965,-0.6967231,-0.06668766,785.7143,828.022,776.04395,760.32965,933.1868,-0.20513916015625,-0.019287109375,0.9937744140625,-0.95703125,-0.3289794921875,-0.897216796875,1,1.0,1.0,1.0,1.0,55.00
2022-11-23 20:20:40.341,1.2531413,0.32675165,0.093085214,1.2057898,1.2348166,0.48335344,0.31039298,1.0920459,1.0285239,0.12906602,0.36503756,1.0462933,0.23112935,-0.10356458,-0.15103044,0.2243528,-0.20322819,-0.5028965,-0.6967231,-0.06668766,764.7619,831.6484,774.0293,739.7802,901.3553,-0.20513916015625,-0.019287109375,0.9937744140625,-0.95703125,-0.3289794921875,-0.897216796875,1,1.0,1.0,1.0,1.0,55.00
2022-11-23 20:20:40.341,1.2531413,0.32675165,0.093085214,1.2057898,1.2348166,0.48335344,0.31039298,1.0920459,1.0285239,0.12906602,0.36503756,1.0462933,0.23112935,-0.10356458,-0.15103044,0.2243528,-0.20322819,-0.5028965,-0.6967231,-0.06668766,723.2601,836.8865,772.01465,711.1722,793.36993,-0.20513916015625,-0.019287109375,0.9937744140625,-0.95703125,-0.3289794921875,-0.897216796875,1,1.0,1.0,1.0,1.0,55.00
2022-11-23 20:20:40.342,1.2531413,0.32675165,0.093085214,1.2057898,1.2348166,0.48335344,0.31039298,1.0920459,1.0285239,0.12906602,0.36503756,1.0462933,0.23112935,-0.10356458,-0.15103044,0.2243528,-0.20322819,-0.5028965,-0.6967231,-0.06668766,724.0659,840.9158,767.5824,710.3663,792.96704,-0.20513916015625,-0.019287109375,0.9937744140625,-0.95703125,-0.3289794921875,-0.897216796875,1,1.0,1.0,1.0,1.0,55.00
2022-11-23 20:20:40.342,1.2531413,0.32675165,0.093085214,1.2057898,1.2348166,0.48335344,0.31039298,1.0920459,1.0285239,0.12906602,0.36503756,1.0462933,0.23112935,-0.10356458,-0.15103044,0.2243528,-0.20322819,-0.5028965,-0.6967231,-0.06668766,754.2857,839.707,762.3443,726.08057,923.91943,-0.20513916015625,-0.019287109375,0.9937744140625,-0.95703125,-0.3289794921875,-0.897216796875,1,1.0,1.0,1.0,1.0,55.00
2022-11-23 20:20:40.342,1.2531413,0.32675165,0.093085214,1.2057898,1.2348166,0.48335344,0.31039298,1.0920459,1.0285239,0.12906602,0.36503756,1.0462933,0.23112935,-0.10356458,-0.15103044,0.2243528,-0.20322819,-0.5028965,-0.6967231,-0.06668766,743.4066,843.3333,761.13556,718.022,923.91943,-0.20513916015625,-0.019287109375,0.9937744140625,-0.95703125,-0.3289794921875,-0.897216796875,1,1.0,1.0,1.0,1.0,55.00
2022-11-23 20:20:40.342,1.2531413,0.32675165,0.093085214,1.2057898,1.2348166,0.48335344,0.31039298,1.0920459,1.0285239,0.12906602,0.36503756,1.0462933,0.23112935,-0.10356458,-0.15103044,0.2243528,-0.20322819,-0.5028965,-0.6967231,-0.06668766,701.50183,845.7509,758.315,689.011,966.63007,-0.20513916015625,-0.019287109375,0.9937744140625,-0.95703125,-0.3289794921875,-0.897216796875,1,1.0,1.0,1.0,1.0,55.00
2022-11-23 20:20:40.342,1.2531413,0.32675165,0.093085214,1.2057898,1.2348166,0.48335344,0.31039298,1.0920459,1.0285239,0.12906602,0.36503756,1.0462933,0.23112935,-0.10356458,-0.15103044,0.2243528,-0.20322819,-0.5028965,-0.6967231,-0.06668766,710.3663,850.18317,758.315,702.71063,1058.9011,-0.20513916015625,-0.019287109375,0.9937744140625,-0.95703125,-0.3289794921875,-0.897216796875,1,1.0,1.0,1.0,1.0,55.00
2022-11-23 20:20:40.343,1.2531413,0.32675165,0.093085214,1.2057898,1.2348166,0.48335344,0.31039298,1.0920459,1.0285239,0.12906602,0.36503756,1.0462933,0.23112935,-0.10356458,-0.15103044,0.2243528,-0.20322819,-0.5028965,-0.6967231,-0.06668766,751.4652,854.61536,759.5238,724.87177,899.34064,-0.20513916015625,-0.019287109375,0.9937744140625,-0.95703125,-0.3289794921875,-0.897216796875,1,1.0,1.0,1.0,1.0,55.00
2022-11-23 20:20:40.343,1.2531413,0.32675165,0.093085214,1.2057898,1.2348166,0.48335344,0.31039298,1.0920459,1.0285239,0.12906602,0.36503756,1.0462933,0.23112935,-0.10356458,-0.15103044,0.2243528,-0.20322819,-0.5028965,-0.6967231,-0.06668766,759.12085,852.1978,754.68866,729.707,856.63007,-0.20513916015625,-0.019287109375,0.9937744140625,-0.95703125,-0.3289794921875,-0.897216796875,1,1.0,1.0,1.0,1.0,55.00
2022-11-23 20:20:40.343,1.2531413,0.32675165,0.093085214,1.2057898,1.2348166,0.48335344,0.31039298,1.0920459,1.0285239,0.12906602,0.36503756,1.0462933,0.23112935,-0.10356458,-0.15103044,0.2243528,-0.20322819,-0.5028965,-0.6967231,-0.06668766,723.2601,851.39197,751.06226,699.89014,707.1429,-0.20513916015625,-0.019287109375,0.9937744140625,-0.95703125,-0.3289794921875,-0.897216796875,1,1.0,1.0,1.0,1.0,55.00
2022-11-23 20:20:40.391,1.2531413,0.32675165,0.093085214,1.2057898,1.2348166,0.48335344,0.31039298,1.0920459,1.0285239,0.12906602,0.36503756,1.0462933,0.23112935,-0.10356458,-0.15103044,0.2243528,-0.20322819,-0.5028965,-0.6967231,-0.06668766,715.2015,850.989,755.09155,686.1905,552.8205,-0.21014404296875,-0.02655029296875,0.98602294921875,1.562652587890625,0.418701171875,-3.70849609375,1,1.0,1.0,1.0,1.0,55.00
2022-11-23 20:20:40.391,1.2531413,0.32675165,0.093085214,1.2057898,1.2348166,0.48335344,0.31039298,1.0920459,1.0285239,0.12906602,0.36503756,1.0462933,0.23112935,-0.10356458,-0.15103044,0.2243528,-0.20322819,-0.5028965,-0.6967231,-0.06668766,769.59705,850.18317,757.50916,728.9011,673.2967,-0.21014404296875,-0.02655029296875,0.98602294921875,1.562652587890625,0.418701171875,-3.70849609375,1,1.0,1.0,1.0,1.0,55.00
2022-11-23 20:20:40.392,1.2531413,0.32675165,0.093085214,1.2057898,1.2348166,0.48335344,0.31039298,1.0920459,1.0285239,0.12906602,0.36503756,1.0462933,0.23112935,-0.10356458,-0.15103044,0.2243528,-0.20322819,-0.5028965,-0.6967231,-0.06668766,788.93774,851.39197,761.9414,745.82416,774.83514,-0.21014404296875,-0.02655029296875,0.98602294921875,1.562652587890625,0.418701171875,-3.70849609375,1,1.0,1.0,1.0,1.0,55.00
2022-11-23 20:20:40.392,1.2531413,0.32675165,0.093085214,1.2057898,1.2348166,0.48335344,0.31039298,1.0920459,1.0285239,0.12906602,0.36503756,1.0462933,0.23112935,-0.10356458,-0.15103044,0.2243528,-0.20322819,-0.5028965,-0.6967231,-0.06668766,746.2271,850.989,765.56775,720.84247,753.8828,-0.21014404296875,-0.02655029296875,0.98602294921875,1.562652587890625,0.418701171875,-3.70849609375,1,1.0,1.0,1.0,1.0,55.00
2022-11-23 20:20:40.392,1.2531413,0.32675165,0.093085214,1.2057898,1.2348166,0.48335344,0.31039298,1.0920459,1.0285239,0.12906602,0.36503756,1.0462933,0.23112935,-0.10356458,-0.15103044,0.2243528,-0.20322819,-0.5028965,-0.6967231,-0.06668766,741.79486,850.989,765.9707,715.2015,748.24176,-0.21014404296875,-0.02655029296875,0.98602294921875,1.562652587890625,0.418701171875,-3.70849609375,1,1.0,1.0,1.0,1.0,55.00
2022-11-23 20:20:40.392,1.2531413,0.32675165,0.093085214,1.2057898,1.2348166,0.48335344,0.31039298,1.0920459,1.0285239,0.12906602,0.36503756,1.0462933,0.23112935,-0.10356458,-0.15103044,0.2243528,-0.20322819,-0.5028965,-0.6967231,-0.06668766,788.1319,846.9597,766.77655,743.4066,716.8132,-0.21014404296875,-0.02655029296875,0.98602294921875,1.562652587890625,0.418701171875,-3.70849609375,1,1.0,1.0,1.0,1.0,55.00
2022-11-23 20:20:40.393,1.2531413,0.32675165,0.093085214,1.2057898,1.2348166,0.48335344,0.31039298,1.0920459,1.0285239,0.12906602,0.36503756,1.0462933,0.23112935,-0.10356458,-0.15103044,0.2243528,-0.20322819,-0.5028965,-0.6967231,-0.06668766,812.3077,841.31866,767.98535,766.3736,843.73627,-0.21014404296875,-0.02655029296875,0.98602294921875,1.562652587890625,0.418701171875,-3.70849609375,1,1.0,1.0,1.0,1.0,55.00
2022-11-23 20:20:40.393,1.2563715,0.32831734,0.10243488,1.2344491,1.2594249,0.5127075,0.33863145,1.1113899,1.0285239,0.12786579,0.36503756,1.0462933,0.2397048,-0.091199175,-0.15628506,0.23134787,-0.18125862,-0.4901573,-0.7026501,-0.05925111,791.75824,838.9011,767.98535,752.27106,1095.1648,-0.21014404296875,-0.02655029296875,0.98602294921875,1.562652587890625,0.418701171875,-3.70849609375,1,1.0,1.0,1.0,1.0,55.00
2022-11-23 20:20:40.394,1.2563715,0.32831734,0.10243488,1.2344491,1.2594249,0.5127075,0.33863145,1.1113899,1.0285239,0.12786579,0.36503756,1.0462933,0.2397048,-0.091199175,-0.15628506,0.23134787,-0.18125862,-0.4901573,-0.7026501,-0.05925111,762.3443,838.9011,768.7912,733.73627,813.91943,-0.21014404296875,-0.02655029296875,0.98602294921875,1.562652587890625,0.418701171875,-3.70849609375,1,1.0,1.0,1.0,1.0,55.00
2022-11-23 20:20:40.394,1.2563715,0.32831734,0.10243488,1.2344491,1.2594249,0.5127075,0.33863145,1.1113899,1.0285239,0.12786579,0.36503756,1.0462933,0.2397048,-0.091199175,-0.15628506,0.23134787,-0.18125862,-0.4901573,-0.7026501,-0.05925111,783.69965,842.52747,774.0293,755.4945,614.0659,-0.21014404296875,-0.02655029296875,0.98602294921875,1.562652587890625,0.418701171875,-3.70849609375,1,1.0,1.0,1.0,1.0,55.00
2022-11-23 20:20:40.394,1.2563715,0.32831734,0.10243488,1.2344491,1.2594249,0.5127075,0.33863145,1.1113899,1.0285239,0.12786579,0.36503756,1.0462933,0.2397048,-0.091199175,-0.15628506,0.23134787,-0.18125862,-0.4901573,-0.7026501,-0.05925111,825.2015,842.52747,774.43225,789.7436,828.4249,-0.21014404296875,-0.02655029296875,0.98602294921875,1.562652587890625,0.418701171875,-3.70849609375,1,1.0,1.0,1.0,1.0,55.00
2022-11-23 20:20:40.395,1.2563715,0.32831734,0.10243488,1.2344491,1.2594249,0.5127075,0.33863145,1.1113899,1.0285239,0.12786579,0.36503756,1.0462933,0.2397048,-0.091199175,-0.15628506,0.23134787,-0.18125862,-0.4901573,-0.7026501,-0.05925111,816.337,840.9158,774.83514,780.4762,832.0513,-0.21014404296875,-0.02655029296875,0.98602294921875,1.562652587890625,0.418701171875,-3.70849609375,1,1.0,1.0,1.0,1.0,55.00
2022-11-23 20:20:40.446,1.2563715,0.32831734,0.10243488,1.2344491,1.2594249,0.5127075,0.33863145,1.1113899,1.0285239,0.12786579,0.36503756,1.0462933,0.2397048,-0.091199175,-0.15628506,0.23134787,-0.18125862,-0.4901573,-0.7026501,-0.05925111,772.4176,837.28937,779.2674,752.674,643.8828,-0.2152099609375,-0.0172119140625,0.9871826171875,5.061798095703125,1.39068603515625,-3.970184326171875,1,1.0,1.0,1.0,1.0,55.00
2022-11-23 20:20:40.447,1.2563715,0.32831734,0.10243488,1.2344491,1.2594249,0.5127075,0.33863145,1.1113899,1.0285239,0.12786579,0.36503756,1.0462933,0.2397048,-0.091199175,-0.15628506,0.23134787,-0.18125862,-0.4901573,-0.7026501,-0.05925111,775.64105,828.8278,780.07324,757.1062,592.71063,-0.2152099609375,-0.0172119140625,0.9871826171875,5.061798095703125,1.39068603515625,-3.970184326171875,1,1.0,1.0,1.0,1.0,55.00
2022-11-23 20:20:40.447,1.2563715,0.32831734,0.10243488,1.2344491,1.2594249,0.5127075,0.33863145,1.1113899,1.0285239,0.12786579,0.36503756,1.0462933,0.2397048,-0.091199175,-0.15628506,0.23134787,-0.18125862,-0.4901573,-0.7026501,-0.05925111,821.5751,826.8132,777.25275,786.52014,698.2784,-0.2152099609375,-0.0172119140625,0.9871826171875,5.061798095703125,1.39068603515625,-3.970184326171875,1,1.0,1.0,1.0,1.0,55.00
2022-11-23 20:20:40.448,1.2563715,0.32831734,0.10243488,1.2344491,1.2594249,0.5127075,0.33863145,1.1113899,1.0285239,0.12786579,0.36503756,1.0462933,0.2397048,-0.091199175,-0.15628506,0.23134787,-0.18125862,-0.4901573,-0.7026501,-0.05925111,834.4689,829.6337,781.685,795.38464,782.49084,-0.2152099609375,-0.0172119140625,0.9871826171875,5.061798095703125,1.39068603515625,-3.970184326171875,1,1.0,1.0,1.0,1.0,55.00
2022-11-23 20:20:40.448,1.2563715,0.32831734,0.10243488,1.2344491,1.2594249,0.5127075,0.33863145,1.1113899,1.0285239,0.12786579,0.36503756,1.0462933,0.2397048,-0.091199175,-0.15628506,0.23134787,-0.18125862,-0.4901573,-0.7026501,-0.05925111,801.8315,829.2308,784.10254,771.6117,735.34796,-0.2152099609375,-0.0172119140625,0.9871826171875,5.061798095703125,1.39068603515625,-3.970184326171875,1,1.0,1.0,1.0,1.0,55.00
2022-11-23 20:20:40.449,1.2563715,0.32831734,0.10243488,1.2344491,1.2594249,0.5127075,0.33863145,1.1113899,1.0285239,0.12786579,0.36503756,1.0462933,0.2397048,-0.091199175,-0.15628506,0.23134787,-0.18125862,-0.4901573,-0.7026501,-0.05925111,788.1319,824.3956,777.25275,763.1502,719.6337,-0.2152099609375,-0.0172119140625,0.9871826171875,5.061798095703125,1.39068603515625,-3.970184326171875,1,1.0,1.0,1.0,1.0,55.00
2022-11-23 20:20:40.449,1.2563715,0.32831734,0.10243488,1.2344491,1.2594249,0.5127075,0.33863145,1.1113899,1.0285239,0.12786579,0.36503756,1.0462933,0.2397048,-0.091199175,-0.15628506,0.23134787,-0.18125862,-0.4901573,-0.7026501,-0.05925111,819.9634,821.5751,783.69965,792.1612,955.34796,-0.2152099609375,-0.0172119140625,0.9871826171875,5.061798095703125,1.39068603515625,-3.970184326171875,1,1.0,1.0,1.0,1.0,55.00
2022-11-23 20:20:40.450,1.2563715,0.32831734,0.10243488,1.2344491,1.2594249,0.5127075,0.33863145,1.1113899,1.0285239,0.12786579,0.36503756,1.0462933,0.2397048,-0.091199175,-0.15628506,0.23134787,-0.18125862,-0.4901573,-0.7026501,-0.05925111,838.49817,820.7692,792.1612,811.50183,1103.6263,-0.2152099609375,-0.0172119140625,0.9871826171875,5.061798095703125,1.39068603515625,-3.970184326171875,1,1.0,1.0,1.0,1.0,55.00
2022-11-23 20:20:40.450,1.2563715,0.32831734,0.10243488,1.2344491,1.2594249,0.5127075,0.33863145,1.1113899,1.0285239,0.12786579,0.36503756,1.0462933,0.2397048,-0.091199175,-0.15628506,0.23134787,-0.18125862,-0.4901573,-0.7026501,-0.05925111,815.5311,822.7839,789.34064,792.5641,783.69965,-0.2152099609375,-0.0172119140625,0.9871826171875,5.061798095703125,1.39068603515625,-3.970184326171875,1,1.0,1.0,1.0,1.0,55.00
2022-11-23 20:20:40.451,1.2563715,0.32831734,0.10243488,1.2344491,1.2594249,0.5127075,0.33863145,1.1113899,1.0285239,0.12786579,0.36503756,1.0462933,0.2397048,-0.091199175,-0.15628506,0.23134787,-0.18125862,-0.4901573,-0.7026501,-0.05925111,789.34064,826.4103,787.72894,777.25275,618.9011,-0.2152099609375,-0.0172119140625,0.9871826171875,5.061798095703125,1.39068603515625,-3.970184326171875,1,1.0,1.0,1.0,1.0,55.00
2022-11-23 20:20:40.451,1.2563715,0.32831734,0.10243488,1.2344491,1.2594249,0.5127075,0.33863145,1.1113899,1.0285239,0.12786579,0.36503756,1.0462933,0.2397048,-0.091199175,-0.15628506,0.23134787,-0.18125862,-0.4901573,-0.7026501,-0.05925111,797.3993,826.0073,790.9524,805.05493,879.59705,-0.2152099609375,-0.0172119140625,0.9871826171875,5.061798095703125,1.39068603515625,-3.970184326171875,1,1.0,1.0,1.0,1.0,55.00
2022-11-23 20:20:40.451,1.2563715,0.32831734,0.10243488,1.2344491,1.2594249,0.5127075,0.33863145,1.1113899,1.0285239,0.12786579,0.36503756,1.0462933,0.2397048,-0.091199175,-0.15628506,0.23134787,-0.18125862,-0.4901573,-0.7026501,-0.05925111,837.6923,822.381,794.17584,828.8278,973.47986,-0.2152099609375,-0.0172119140625,0.9871826171875,5.061798095703125,1.39068603515625,-3.970184326171875,1,1.0,1.0,1.0,1.0,55.00
2022-11-23 20:20:40.498,1.2563715,0.32831734,0.10243488,1.2344491,1.2594249,0.5127075,0.33863145,1.1113899,1.0285239,0.12786579,0.36503756,1.0462933,0.2397048,-0.091199175,-0.15628506,0.23134787,-0.18125862,-0.4901573,-0.7026501,-0.05925111,830.0366,819.15753,794.57874,809.89014,748.6447,-0.240234375,-0.0098876953125,0.98138427734375,7.46185302734375,0.2691650390625,-4.897308349609375,1,1.0,1.0,1.0,1.0,55.00
2022-11-23 20:20:40.499,1.2563715,0.32831734,0.10243488,1.2344491,1.2594249,0.5127075,0.33863145,1.1113899,1.0285239,0.12786579,0.36503756,1.0462933,0.2397048,-0.091199175,-0.15628506,0.23134787,-0.18125862,-0.4901573,-0.7026501,-0.05925111,796.1905,815.5311,790.9524,782.0879,595.12823,-0.240234375,-0.0098876953125,0.98138427734375,7.46185302734375,0.2691650390625,-4.897308349609375,1,1.0,1.0,1.0,1.0,55.00
2022-11-23 20:20:40.499,1.2563715,0.32831734,0.10243488,1.2344491,1.2594249,0.5127075,0.33863145,1.1113899,1.0285239,0.12786579,0.36503756,1.0462933,0.2397048,-0.091199175,-0.15628506,0.23134787,-0.18125862,-0.4901573,-0.7026501,-0.05925111,803.0403,813.5165,792.1612,790.54944,667.25275,-0.240234375,-0.0098876953125,0.98138427734375,7.46185302734375,0.2691650390625,-4.897308349609375,1,1.0,1.0,1.0,1.0,55.00
2022-11-23 20:20:40.499,1.2563715,0.32831734,0.10243488,1.2344491,1.2594249,0.5127075,0.33863145,1.1113899,1.0285239,0.12786579,0.36503756,1.0462933,0.2397048,-0.091199175,-0.15628506,0.23134787,-0.18125862,-0.4901573,-0.7026501,-0.05925111,841.31866,817.1429,790.14655,819.5604,859.45056,-0.240234375,-0.0098876953125,0.98138427734375,7.46185302734375,0.2691650390625,-4.897308349609375,1,1.0,1.0,1.0,1.0,55.00
2022-11-23 20:20:40.500,1.2563715,0.32831734,0.10243488,1.2344491,1.2594249,0.5127075,0.33863145,1.1113899,1.0285239,0.12786579,0.36503756,1.0462933,0.2397048,-0.091199175,-0.15628506,0.23134787,-0.18125862,-0.4901573,-0.7026501,-0.05925111,840.9158,818.3516,792.1612,817.9487,880.40295,-0.240234375,-0.0098876953125,0.98138427734375,7.46185302734375,0.2691650390625,-4.897308349609375,1,1.0,1.0,1.0,1.0,55.00
2022-11-23 20:20:40.500,1.2563715,0.32831734,0.10243488,1.2344491,1.2594249,0.5127075,0.33863145,1.1113899,1.0285239,0.12786579,0.36503756,1.0462933,0.2397048,-0.091199175,-0.15628506,0.23134787,-0.18125862,-0.4901573,-0.7026501,-0.05925111,804.2491,821.1722,799.81683,798.20514,782.49084,-0.240234375,-0.0098876953125,0.98138427734375,7.46185302734375,0.2691650390625,-4.897308349609375,1,1.0,1.0,1.0,1.0,55.00
2022-11-23 20:20:40.500,1.2563715,0.32831734,0.10243488,1.2344491,1.2594249,0.5127075,0.33863145,1.1113899,1.0285239,0.12786579,0.36503756,1.0462933,0.2397048,-0.091199175,-0.15628506,0.23134787,-0.18125862,-0.4901573,-0.7026501,-0.05925111,800.2198,817.1429,800.2198,805.8608,909.81683,-0.240234375,-0.0098876953125,0.98138427734375,7.46185302734375,0.2691650390625,-4.897308349609375,1,1.0,1.0,1.0,1.0,55.00
2022-11-23 20:20:40.500,1.2563715,0.32831734,0.10243488,1.2344491,1.2594249,0.5127075,0.33863145,1.1113899,1.0285239,0.12786579,0.36503756,1.0462933,0.2397048,-0.091199175,-0.15628506,0.23134787,-0.18125862,-0.4901573,-0.7026501,-0.05925111,833.663,814.3223,799.41394,827.619,853.00366,-0.240234375,-0.0098876953125,0.98138427734375,7.46185302734375,0.2691650390625,-4.897308349609375,1,1.0,1.0,1.0,1.0,55.00
2022-11-23 20:20:40.501,1.2563715,0.32831734,0.10243488,1.2344491,1.2594249,0.5127075,0.33863145,1.1113899,1.0285239,0.12786579,0.36503756,1.0462933,0.2397048,-0.091199175,-0.15628506,0.23134787,-0.18125862,-0.4901573,-0.7026501,-0.05925111,841.7216,813.5165,799.81683,828.8278,787.72894,-0.240234375,-0.0098876953125,0.98138427734375,7.46185302734375,0.2691650390625,-4.897308349609375,1,1.0,1.0,1.0,1.0,55.00
2022-11-23 20:20:40.501,1.2810224,0.36963308,0.16117792,1.2688186,1.2881261,0.54136175,0.36785877,1.128876,1.0285239,0.12910977,0.36503756,1.034079,0.24314255,-0.08379472,-0.1536627,0.24223223,-0.17890912,-0.4772736,-0.7061457,-0.046507847,813.91943,812.3077,798.60803,803.8461,716.8132,-0.240234375,-0.0098876953125,0.98138427734375,7.46185302734375,0.2691650390625,-4.897308349609375,1,1.0,1.0,1.0,1.0,55.00
2022-11-23 20:20:40.502,1.2810224,0.36963308,0.16117792,1.2688186,1.2881261,0.54136175,0.36785877,1.128876,1.0285239,0.12910977,0.36503756,1.034079,0.24314255,-0.08379472,-0.1536627,0.24223223,-0.17890912,-0.4772736,-0.7061457,-0.046507847,799.41394,807.8755,798.20514,794.17584,637.8388,-0.240234375,-0.0098876953125,0.98138427734375,7.46185302734375,0.2691650390625,-4.897308349609375,1,1.0,1.0,1.0,1.0,55.00
2022-11-23 20:20:40.502,1.2810224,0.36963308,0.16117792,1.2688186,1.2881261,0.54136175,0.36785877,1.128876,1.0285239,0.12910977,0.36503756,1.034079,0.24314255,-0.08379472,-0.1536627,0.24223223,-0.17890912,-0.4772736,-0.7061457,-0.046507847,825.6044,803.44324,797.3993,816.7399,705.9341,-0.240234375,-0.0098876953125,0.98138427734375,7.46185302734375,0.2691650390625,-4.897308349609375,1,1.0,1.0,1.0,1.0,55.00
2022-11-23 20:20:40.523,1.2810224,0.36963308,0.16117792,1.2688186,1.2881261,0.54136175,0.36785877,1.128876,1.0285239,0.12910977,0.36503756,1.034079,0.24314255,-0.08379472,-0.1536627,0.24223223,-0.17890912,-0.4772736,-0.7061457,-0.046507847,854.21246,807.47253,799.41394,827.619,879.19415,-0.22119140625,0.0020751953125,1.0001220703125,8.411407470703125,-1.188812255859375,-5.854339599609375,1,1.0,1.0,1.0,1.0,55.00
2022-11-23 20:20:40.524,1.2810224,0.36963308,0.16117792,1.2688186,1.2881261,0.54136175,0.36785877,1.128876,1.0285239,0.12910977,0.36503756,1.034079,0.24314255,-0.08379472,-0.1536627,0.24223223,-0.17890912,-0.4772736,-0.7061457,-0.046507847,827.619,807.47253,798.60803,806.6667,855.42126,-0.22119140625,0.0020751953125,1.0001220703125,8.411407470703125,-1.188812255859375,-5.854339599609375,1,1.0,1.0,1.0,1.0,55.00
2022-11-23 20:20:40.524,1.2810224,0.36963308,0.16117792,1.2688186,1.2881261,0.54136175,0.36785877,1.128876,1.0285239,0.12910977,0.36503756,1.034079,0.24314255,-0.08379472,-0.1536627,0.24223223,-0.17890912,-0.4772736,-0.7061457,-0.046507847,774.43225,803.0403,796.99634,790.9524,720.0366,-0.22119140625,0.0020751953125,1.0001220703125,8.411407470703125,-1.188812255859375,-5.854339599609375,1,1.0,1.0,1.0,1.0,55.00
2022-11-23 20:20:40.524,1.2810224,0.36963308,0.16117792,1.2688186,1.2881261,0.54136175,0.36785877,1.128876,1.0285239,0.12910977,0.36503756,1.034079,0.24314255,-0.08379472,-0.1536627,0.24223223,-0.17890912,-0.4772736,-0.7061457,-0.046507847,803.44324,803.0403,796.99634,809.89014,692.6374,-0.22119140625,0.0020751953125,1.0001220703125,8.411407470703125,-1.188812255859375,-5.854339599609375,1,1.0,1.0,1.0,1.0,55.00
2022-11-23 20:20:40.525,1.2810224,0.36963308,0.16117792,1.2688186,1.2881261,0.54136175,0.36785877,1.128876,1.0285239,0.12910977,0.36503756,1.034079,0.24314255,-0.08379472,-0.1536627,0.24223223,-0.17890912,-0.4772736,-0.7061457,-0.046507847,861.4652,805.4579,801.02563,833.663,829.6337,-0.22119140625,0.0020751953125,1.0001220703125,8.411407470703125,-1.188812255859375,-5.854339599609375,1,1.0,1.0,1.0,1.0,55.00
2022-11-23 20:20:40.525,1.2810224,0.36963308,0.16117792,1.2688186,1.2881261,0.54136175,0.36785877,1.128876,1.0285239,0.12910977,0.36503756,1.034079,0.24314255,-0.08379472,-0.1536627,0.24223223,-0.17890912,-0.4772736,-0.7061457,-0.046507847,834.0659,802.6374,801.4286,823.1868,981.13556,-0.22119140625,0.0020751953125,1.0001220703125,8.411407470703125,-1.188812255859375,-5.854339599609375,1,1.0,1.0,1.0,1.0,55.00
2022-11-23 20:20:40.525,1.2810224,0.36963308,0.16117792,1.2688186,1.2881261,0.54136175,0.36785877,1.128876,1.0285239,0.12910977,0.36503756,1.034079,0.24314255,-0.08379472,-0.1536627,0.24223223,-0.17890912,-0.4772736,-0.7061457,-0.046507847,790.9524,800.6227,794.17584,786.52014,840.10986,-0.22119140625,0.0020751953125,1.0001220703125,8.411407470703125,-1.188812255859375,-5.854339599609375,1,1.0,1.0,1.0,1.0,55.00
2022-11-23 20:20:40.526,1.2810224,0.36963308,0.16117792,1.2688186,1.2881261,0.54136175,0.36785877,1.128876,1.0285239,0.12910977,0.36503756,1.034079,0.24314255,-0.08379472,-0.1536627,0.24223223,-0.17890912,-0.4772736,-0.7061457,-0.046507847,800.6227,799.41394,797.8022,798.20514,723.2601,-0.22119140625,0.0020751953125,1.0001220703125,8.411407470703125,-1.188812255859375,-5.854339599609375,1,1.0,1.0,1.0,1.0,55.00
2022-11-23 20:20:40.526,1.2810224,0.36963308,0.16117792,1.2688186,1.2881261,0.54136175,0.36785877,1.128876,1.0285239,0.12910977,0.36503756,1.034079,0.24314255,-0.08379472,-0.1536627,0.24223223,-0.17890912,-0.4772736,-0.7061457,-0.046507847,839.707,801.02563,800.2198,833.663,819.9634,-0.22119140625,0.0020751953125,1.0001220703125,8.411407470703125,-1.188812255859375,-5.854339599609375,1,1.0,1.0,1.0,1.0,55.00
2022-11-23 20:20:40.526,1.2810224,0.36963308,0.16117792,1.2688186,1.2881261,0.54136175,0.36785877,1.128876,1.0285239,0.12910977,0.36503756,1.034079,0.24314255,-0.08379472,-0.1536627,0.24223223,-0.17890912,-0.4772736,-0.7061457,-0.046507847,837.6923,800.6227,795.38464,831.2454,987.5824,-0.22119140625,0.0020751953125,1.0001220703125,8.411407470703125,-1.188812255859375,-5.854339599609375,1,1.0,1.0,1.0,1.0,55.00
2022-11-23 20:20:40.526,1.2810224,0.36963308,0.16117792,1.2688186,1.2881261,0.54136175,0.36785877,1.128876,1.0285239,0.12910977,0.36503756,1.034079,0.24314255,-0.08379472,-0.1536627,0.24223223,-0.17890912,-0.4772736,-0.7061457,-0.046507847,796.99634,800.2198,799.41394,807.8755,843.73627,-0.22119140625,0.0020751953125,1.0001220703125,8.411407470703125,-1.188812255859375,-5.854339599609375,1,1.0,1.0,1.0,1.0,55.00
2022-11-23 20:20:40.527,1.2810224,0.36963308,0.16117792,1.2688186,1.2881261,0.54136175,0.36785877,1.128876,1.0285239,0.12910977,0.36503756,1.034079,0.24314255,-0.08379472,-0.1536627,0.24223223,-0.17890912,-0.4772736,-0.7061457,-0.046507847,790.54944,805.05493,803.8461,804.2491,594.7253,-0.22119140625,0.0020751953125,1.0001220703125,8.411407470703125,-1.188812255859375,-5.854339599609375,1,1.0,1.0,1.0,1.0,55.00
2022-11-23 20:20:40.588,1.2810224,0.36963308,0.16117792,1.2688186,1.2881261,0.54136175,0.36785877,1.128876,1.0285239,0.12910977,0.36503756,1.034079,0.24314255,-0.08379472,-0.1536627,0.24223223,-0.17890912,-0.4772736,-0.7061457,-0.046507847,834.87177,804.65204,800.6227,831.6484,747.8388,-0.22119140625,0.0020751953125,1.0001220703125,8.411407470703125,-1.188812255859375,-5.854339599609375,1,1.0,1.0,1.0,1.0,55.00
2022-11-23 20:20:40.588,1.2810224,0.36963308,0.16117792,1.2688186,1.2881261,0.54136175,0.36785877,1.128876,1.0285239,0.12910977,0.36503756,1.034079,0.24314255,-0.08379472,-0.1536627,0.24223223,-0.17890912,-0.4772736,-0.7061457,-0.046507847,853.00366,804.65204,799.011,836.08057,868.71796,-0.22119140625,0.0020751953125,1.0001220703125,8.411407470703125,-1.188812255859375,-5.854339599609375,1,1.0,1.0,1.0,1.0,55.00
2022-11-23 20:20:40.588,1.2810224,0.36963308,0.16117792,1.2688186,1.2881261,0.54136175,0.36785877,1.128876,1.0285239,0.12910977,0.36503756,1.034079,0.24314255,-0.08379472,-0.1536627,0.24223223,-0.17890912,-0.4772736,-0.7061457,-0.046507847,814.7253,806.26373,802.6374,801.8315,743.4066,-0.22119140625,0.0020751953125,1.0001220703125,8.411407470703125,-1.188812255859375,-5.854339599609375,1,1.0,1.0,1.0,1.0,55.00
2022-11-23 20:20:40.589,1.2810224,0.36963308,0.16117792,1.2688186,1.2881261,0.54136175,0.36785877,1.128876,1.0285239,0.12910977,0.36503756,1.034079,0.24314255,-0.08379472,-0.1536627,0.24223223,-0.17890912,-0.4772736,-0.7061457,-0.046507847,782.0879,804.65204,805.4579,786.52014,587.47253,-0.22119140625,0.0020751953125,1.0001220703125,8.411407470703125,-1.188812255859375,-5.854339599609375,1,1.0,1.0,1.0,1.0,55.00
2022-11-23 20:20:40.589,1.2810224,0.36963308,0.16117792,1.2688186,1.2881261,0.54136175,0.36785877,1.128876,1.0285239,0.12910977,0.36503756,1.034079,0.24314255,-0.08379472,-0.1536627,0.24223223,-0.17890912,-0.4772736,-0.7061457,-0.046507847,810.696,806.26373,805.4579,811.9048,706.7399,-0.22119140625,0.0020751953125,1.0001220703125,8.411407470703125,-1.188812255859375,-5.854339599609375,1,1.0,1.0,1.0,1.0,55.00
2022-11-23 20:20:40.590,1.2810224,0.36963308,0.16117792,1.2688186,1.2881261,0.54136175,0.36785877,1.128876,1.0285239,0.12910977,0.36503756,1.034079,0.24314255,-0.08379472,-0.1536627,0.24223223,-0.17890912,-0.4772736,-0.7061457,-0.046507847,842.52747,804.65204,802.6374,831.2454,1143.9194,-0.22119140625,0.0020751953125,1.0001220703125,8.411407470703125,-1.188812255859375,-5.854339599609375,1,1.0,1.0,1.0,1.0,55.00
2022-11-23 20:20:40.590,1.2810224,0.36963308,0.16117792,1.2688186,1.2881261,0.54136175,0.36785877,1.128876,1.0285239,0.12910977,0.36503756,1.034079,0.24314255,-0.08379472,-0.1536627,0.24223223,-0.17890912,-0.4772736,-0.7061457,-0.046507847,807.8755,806.26373,801.4286,803.8461,1003.2967,-0.22119140625,0.0020751953125,1.0001220703125,8.411407470703125,-1.188812255859375,-5.854339599609375,1,1.0,1.0,1.0,1.0,55.00
2022-11-23 20:20:40.590,1.2810224,0.36963308,0.16117792,1.2688186,1.2881261,0.54136175,0.36785877,1.128876,1.0285239,0.12910977,0.36503756,1.034079,0.24314255,-0.08379472,-0.1536627,0.24223223,-0.17890912,-0.4772736,-0.7061457,-0.046507847,777.6557,807.47253,802.23444,778.46155,628.97437,-0.22119140625,0.0020751953125,1.0001220703125,8.411407470703125,-1.188812255859375,-5.854339599609375,1,1.0,1.0,1.0,1.0,55.00
2022-11-23 20:20:40.591,1.2810224,0.36963308,0.16117792,1.2688186,1.2881261,0.54136175,0.36785877,1.128876,1.0285239,0.12910977,0.36503756,1.034079,0.24314255,-0.08379472,-0.1536627,0.24223223,-0.17890912,-0.4772736,-0.7061457,-0.046507847,799.81683,801.4286,799.81683,794.17584,720.84247,-0.22119140625,0.0020751953125,1.0001220703125,8.411407470703125,-1.188812255859375,-5.854339599609375,1,1.0,1.0,1.0,1.0,55.00
2022-11-23 20:20:40.591,1.2810224,0.36963308,0.16117792,1.2688186,1.2881261,0.54136175,0.36785877,1.128876,1.0285239,0.12910977,0.36503756,1.034079,0.24314255,-0.08379472,-0.1536627,0.24223223,-0.17890912,-0.4772736,-0.7061457,-0.046507847,833.663,799.011,795.78754,816.7399,995.2381,-0.22119140625,0.0020751953125,1.0001220703125,8.411407470703125,-1.188812255859375,-5.854339599609375,1,1.0,1.0,1.0,1.0,55.00
2022-11-23 20:20:40.591,1.2810224,0.36963308,0.16117792,1.2688186,1.2881261,0.54136175,0.36785877,1.128876,1.0285239,0.12910977,0.36503756,1.034079,0.24314255,-0.08379472,-0.1536627,0.24223223,-0.17890912,-0.4772736,-0.7061457,-0.046507847,819.5604,800.6227,796.99634,804.2491,897.326,-0.22119140625,0.0020751953125,1.0001220703125,8.411407470703125,-1.188812255859375,-5.854339599609375,1,1.0,1.0,1.0,1.0,55.00
2022-11-23 20:20:40,,,,,,,,,,,,,,,,,,,,,,,,,,,,,,,,,,,,,,/muse/elements/blink
2022-11-23 20:20:40.591,1.3028641,0.5074793,0.3289833,1.3065209,1.3183581,0.5864979,0.42893648,1.1473526,1.0285239,0.17694323,0.3523042,1.0127096,0.24973194,-0.07099419,-0.14670324,0.26004297,-0.18067233,-0.46357208,-0.70988333,-0.032491483,753.8828,799.81683,796.1905,775.64105,628.5714,-0.22119140625,0.0020751953125,1.0001220703125,8.411407470703125,-1.188812255859375,-5.854339599609375,1,1.0,1.0,1.0,1.0,55.00
2022-11-23 20:20:40.615,1.3028641,0.5074793,0.3289833,1.3065209,1.3183581,0.5864979,0.42893648,1.1473526,1.0285239,0.17694323,0.3523042,1.0127096,0.24973194,-0.07099419,-0.14670324,0.26004297,-0.18067233,-0.46357208,-0.70988333,-0.032491483,761.9414,798.60803,792.96704,777.6557,647.1062,-0.1783447265625,0.01861572265625,1.01202392578125,5.779571533203125,-5.57769775390625,-3.372039794921875,1,1.0,1.0,1.0,1.0,55.00
2022-11-23 20:20:40.616,1.3028641,0.5074793,0.3289833,1.3065209,1.3183581,0.5864979,0.42893648,1.1473526,1.0285239,0.17694323,0.3523042,1.0127096,0.24973194,-0.07099419,-0.14670324,0.26004297,-0.18067233,-0.46357208,-0.70988333,-0.032491483,823.9927,799.011,796.1905,808.68134,839.707,-0.1783447265625,0.01861572265625,1.01202392578125,5.779571533203125,-5.57769775390625,-3.372039794921875,1,1.0,1.0,1.0,1.0,55.00
2022-11-23 20:20:40.616,1.3028641,0.5074793,0.3289833,1.3065209,1.3183581,0.5864979,0.42893648,1.1473526,1.0285239,0.17694323,0.3523042,1.0127096,0.24973194,-0.07099419,-0.14670324,0.26004297,-0.18067233,-0.46357208,-0.70988333,-0.032491483,827.2161,802.23444,800.2198,816.7399,856.63007,-0.1783447265625,0.01861572265625,1.01202392578125,5.779571533203125,-5.57769775390625,-3.372039794921875,1,1.0,1.0,1.0,1.0,55.00
2022-11-23 20:20:40.616,1.3028641,0.5074793,0.3289833,1.3065209,1.3183581,0.5864979,0.42893648,1.1473526,1.0285239,0.17694323,0.3523042,1.0127096,0.24973194,-0.07099419,-0.14670324,0.26004297,-0.18067233,-0.46357208,-0.70988333,-0.032491483,781.685,803.0403,803.0403,788.93774,728.49817,-0.1783447265625,0.01861572265625,1.01202392578125,5.779571533203125,-5.57769775390625,-3.372039794921875,1,1.0,1.0,1.0,1.0,55.00
2022-11-23 20:20:40.616,1.3028641,0.5074793,0.3289833,1.3065209,1.3183581,0.5864979,0.42893648,1.1473526,1.0285239,0.17694323,0.3523042,1.0127096,0.24973194,-0.07099419,-0.14670324,0.26004297,-0.18067233,-0.46357208,-0.70988333,-0.032491483,762.3443,801.8315,807.47253,781.685,658.7912,-0.1783447265625,0.01861572265625,1.01202392578125,5.779571533203125,-5.57769775390625,-3.372039794921875,1,1.0,1.0,1.0,1.0,55.00
2022-11-23 20:20:40.617,1.3028641,0.5074793,0.3289833,1.3065209,1.3183581,0.5864979,0.42893648,1.1473526,1.0285239,0.17694323,0.3523042,1.0127096,0.24973194,-0.07099419,-0.14670324,0.26004297,-0.18067233,-0.46357208,-0.70988333,-0.032491483,793.36993,801.02563,808.2784,807.47253,815.12823,-0.1783447265625,0.01861572265625,1.01202392578125,5.779571533203125,-5.57769775390625,-3.372039794921875,1,1.0,1.0,1.0,1.0,55.00
2022-11-23 20:20:40.617,1.3028641,0.5074793,0.3289833,1.3065209,1.3183581,0.5864979,0.42893648,1.1473526,1.0285239,0.17694323,0.3523042,1.0127096,0.24973194,-0.07099419,-0.14670324,0.26004297,-0.18067233,-0.46357208,-0.70988333,-0.032491483,822.381,800.2198,804.65204,818.7546,911.8315,-0.1783447265625,0.01861572265625,1.01202392578125,5.779571533203125,-5.57769775390625,-3.372039794921875,1,1.0,1.0,1.0,1.0,55.00
2022-11-23 20:20:40.617,1.3028641,0.5074793,0.3289833,1.3065209,1.3183581,0.5864979,0.42893648,1.1473526,1.0285239,0.17694323,0.3523042,1.0127096,0.24973194,-0.07099419,-0.14670324,0.26004297,-0.18067233,-0.46357208,-0.70988333,-0.032491483,789.7436,801.02563,800.6227,796.99634,872.74725,-0.1783447265625,0.01861572265625,1.01202392578125,5.779571533203125,-5.57769775390625,-3.372039794921875,1,1.0,1.0,1.0,1.0,55.00
2022-11-23 20:20:40.617,1.3028641,0.5074793,0.3289833,1.3065209,1.3183581,0.5864979,0.42893648,1.1473526,1.0285239,0.17694323,0.3523042,1.0127096,0.24973194,-0.07099419,-0.14670324,0.26004297,-0.18067233,-0.46357208,-0.70988333,-0.032491483,755.4945,800.6227,799.81683,778.0586,963.4066,-0.1783447265625,0.01861572265625,1.01202392578125,5.779571533203125,-5.57769775390625,-3.372039794921875,1,1.0,1.0,1.0,1.0,55.00
2022-11-23 20:20:40.618,1.3028641,0.5074793,0.3289833,1.3065209,1.3183581,0.5864979,0.42893648,1.1473526,1.0285239,0.17694323,0.3523042,1.0127096,0.24973194,-0.07099419,-0.14670324,0.26004297,-0.18067233,-0.46357208,-0.70988333,-0.032491483,800.2198,796.99634,799.41394,798.60803,1045.6044,-0.1783447265625,0.01861572265625,1.01202392578125,5.779571533203125,-5.57769775390625,-3.372039794921875,1,1.0,1.0,1.0,1.0,55.00
2022-11-23 20:20:40.618,1.3028641,0.5074793,0.3289833,1.3065209,1.3183581,0.5864979,0.42893648,1.1473526,1.0285239,0.17694323,0.3523042,1.0127096,0.24973194,-0.07099419,-0.14670324,0.26004297,-0.18067233,-0.46357208,-0.70988333,-0.032491483,844.1392,800.6227,799.81683,818.3516,925.5311,-0.1783447265625,0.01861572265625,1.01202392578125,5.779571533203125,-5.57769775390625,-3.372039794921875,1,1.0,1.0,1.0,1.0,55.00
2022-11-23 20:20:40.618,1.3028641,0.5074793,0.3289833,1.3065209,1.3183581,0.5864979,0.42893648,1.1473526,1.0285239,0.17694323,0.3523042,1.0127096,0.24973194,-0.07099419,-0.14670324,0.26004297,-0.18067233,-0.46357208,-0.70988333,-0.032491483,821.5751,803.8461,803.44324,805.05493,834.0659,-0.1783447265625,0.01861572265625,1.01202392578125,5.779571533203125,-5.57769775390625,-3.372039794921875,1,1.0,1.0,1.0,1.0,55.00
2022-11-23 20:20:40.666,1.3028641,0.5074793,0.3289833,1.3065209,1.3183581,0.5864979,0.42893648,1.1473526,1.0285239,0.17694323,0.3523042,1.0127096,0.24973194,-0.07099419,-0.14670324,0.26004297,-0.18067233,-0.46357208,-0.70988333,-0.032491483,769.59705,799.011,801.02563,776.4469,721.6484,-0.18121337890625,0.0111083984375,0.99957275390625,3.6785888671875,-4.792633056640625,-0.979461669921875,1,1.0,1.0,1.0,1.0,55.00
2022-11-23 20:20:40.666,1.3028641,0.5074793,0.3289833,1.3065209,1.3183581,0.5864979,0.42893648,1.1473526,1.0285239,0.17694323,0.3523042,1.0127096,0.24973194,-0.07099419,-0.14670324,0.26004297,-0.18067233,-0.46357208,-0.70988333,-0.032491483,780.87915,799.81683,800.6227,791.75824,697.0696,-0.18121337890625,0.0111083984375,0.99957275390625,3.6785888671875,-4.792633056640625,-0.979461669921875,1,1.0,1.0,1.0,1.0,55.00
2022-11-23 20:20:40.666,1.3028641,0.5074793,0.3289833,1.3065209,1.3183581,0.5864979,0.42893648,1.1473526,1.0285239,0.17694323,0.3523042,1.0127096,0.24973194,-0.07099419,-0.14670324,0.26004297,-0.18067233,-0.46357208,-0.70988333,-0.032491483,811.0989,800.6227,799.011,830.4396,826.0073,-0.18121337890625,0.0111083984375,0.99957275390625,3.6785888671875,-4.792633056640625,-0.979461669921875,1,1.0,1.0,1.0,1.0,55.00
2022-11-23 20:20:40.667,1.3028641,0.5074793,0.3289833,1.3065209,1.3183581,0.5864979,0.42893648,1.1473526,1.0285239,0.17694323,0.3523042,1.0127096,0.24973194,-0.07099419,-0.14670324,0.26004297,-0.18067233,-0.46357208,-0.70988333,-0.032491483,821.1722,803.44324,795.38464,813.5165,819.5604,-0.18121337890625,0.0111083984375,0.99957275390625,3.6785888671875,-4.792633056640625,-0.979461669921875,1,1.0,1.0,1.0,1.0,55.00
2022-11-23 20:20:40.667,1.3028641,0.5074793,0.3289833,1.3065209,1.3183581,0.5864979,0.42893648,1.1473526,1.0285239,0.17694323,0.3523042,1.0127096,0.24973194,-0.07099419,-0.14670324,0.26004297,-0.18067233,-0.46357208,-0.70988333,-0.032491483,783.69965,807.0696,801.02563,779.67035,672.0879,-0.18121337890625,0.0111083984375,0.99957275390625,3.6785888671875,-4.792633056640625,-0.979461669921875,1,1.0,1.0,1.0,1.0,55.00
2022-11-23 20:20:40.667,1.3028641,0.5074793,0.3289833,1.3065209,1.3183581,0.5864979,0.42893648,1.1473526,1.0285239,0.17694323,0.3523042,1.0127096,0.24973194,-0.07099419,-0.14670324,0.26004297,-0.18067233,-0.46357208,-0.70988333,-0.032491483,777.6557,802.6374,802.6374,785.7143,644.2857,-0.18121337890625,0.0111083984375,0.99957275390625,3.6785888671875,-4.792633056640625,-0.979461669921875,1,1.0,1.0,1.0,1.0,55.00
2022-11-23 20:20:40.667,1.3028641,0.5074793,0.3289833,1.3065209,1.3183581,0.5864979,0.42893648,1.1473526,1.0285239,0.17694323,0.3523042,1.0127096,0.24973194,-0.07099419,-0.14670324,0.26004297,-0.18067233,-0.46357208,-0.70988333,-0.032491483,829.2308,805.05493,801.02563,814.7253,817.5458,-0.18121337890625,0.0111083984375,0.99957275390625,3.6785888671875,-4.792633056640625,-0.979461669921875,1,1.0,1.0,1.0,1.0,55.00
2022-11-23 20:20:40.668,1.3028641,0.5074793,0.3289833,1.3065209,1.3183581,0.5864979,0.42893648,1.1473526,1.0285239,0.17694323,0.3523042,1.0127096,0.24973194,-0.07099419,-0.14670324,0.26004297,-0.18067233,-0.46357208,-0.70988333,-0.032491483,818.7546,808.68134,796.5934,813.1135,874.7619,-0.18121337890625,0.0111083984375,0.99957275390625,3.6785888671875,-4.792633056640625,-0.979461669921875,1,1.0,1.0,1.0,1.0,55.00
2022-11-23 20:20:40.668,1.3028641,0.5074793,0.3289833,1.3065209,1.3183581,0.5864979,0.42893648,1.1473526,1.0285239,0.17694323,0.3523042,1.0127096,0.24973194,-0.07099419,-0.14670324,0.26004297,-0.18067233,-0.46357208,-0.70988333,-0.032491483,786.1172,808.68134,794.57874,784.90845,955.7509,-0.18121337890625,0.0111083984375,0.99957275390625,3.6785888671875,-4.792633056640625,-0.979461669921875,1,1.0,1.0,1.0,1.0,55.00
2022-11-23 20:20:40.668,1.3028641,0.5074793,0.3289833,1.3065209,1.3183581,0.5864979,0.42893648,1.1473526,1.0285239,0.17694323,0.3523042,1.0127096,0.24973194,-0.07099419,-0.14670324,0.26004297,-0.18067233,-0.46357208,-0.70988333,-0.032491483,783.2967,807.47253,794.9817,775.64105,811.9048,-0.18121337890625,0.0111083984375,0.99957275390625,3.6785888671875,-4.792633056640625,-0.979461669921875,1,1.0,1.0,1.0,1.0,55.00
2022-11-23 20:20:40.668,1.3028641,0.5074793,0.3289833,1.3065209,1.3183581,0.5864979,0.42893648,1.1473526,1.0285239,0.17694323,0.3523042,1.0127096,0.24973194,-0.07099419,-0.14670324,0.26004297,-0.18067233,-0.46357208,-0.70988333,-0.032491483,803.0403,805.4579,795.78754,804.2491,730.10986,-0.18121337890625,0.0111083984375,0.99957275390625,3.6785888671875,-4.792633056640625,-0.979461669921875,1,1.0,1.0,1.0,1.0,55.00
2022-11-23 20:20:40.669,1.3028641,0.5074793,0.3289833,1.3065209,1.3183581,0.5864979,0.42893648,1.1473526,1.0285239,0.17694323,0.3523042,1.0127096,0.24973194,-0.07099419,-0.14670324,0.26004297,-0.18067233,-0.46357208,-0.70988333,-0.032491483,827.2161,806.26373,794.57874,819.9634,881.6117,-0.18121337890625,0.0111083984375,0.99957275390625,3.6785888671875,-4.792633056640625,-0.979461669921875,1,1.0,1.0,1.0,1.0,55.00
2022-11-23 20:20:40.715,1.3028641,0.5074793,0.3289833,1.3065209,1.3183581,0.5864979,0.42893648,1.1473526,1.0285239,0.17694323,0.3523042,1.0127096,0.24973194,-0.07099419,-0.14670324,0.26004297,-0.18067233,-0.46357208,-0.70988333,-0.032491483,785.31134,801.02563,791.3553,791.3553,863.47986,-0.1942138671875,0.0078125,0.9954833984375,3.12530517578125,-2.280426025390625,-2.699127197265625,1,1.0,1.0,1.0,1.0,55.00
2022-11-23 20:20:40.715,1.3186537,0.7222087,0.5684266,1.3417797,1.3492512,0.6532246,0.525929,1.1709677,1.0285239,0.2685963,0.34300607,0.98848844,0.25985014,-0.048343677,-0.14141911,0.28324363,-0.1826703,-0.44722235,-0.7146491,-0.025778513,751.06226,796.1905,790.9524,768.3883,644.2857,-0.1942138671875,0.0078125,0.9954833984375,3.12530517578125,-2.280426025390625,-2.699127197265625,1,1.0,1.0,1.0,1.0,55.00
2022-11-23 20:20:40.717,1.3186537,0.7222087,0.5684266,1.3417797,1.3492512,0.6532246,0.525929,1.1709677,1.0285239,0.2685963,0.34300607,0.98848844,0.25985014,-0.048343677,-0.14141911,0.28324363,-0.1826703,-0.44722235,-0.7146491,-0.025778513,807.8755,805.8608,794.9817,791.75824,663.6264,-0.1942138671875,0.0078125,0.9954833984375,3.12530517578125,-2.280426025390625,-2.699127197265625,1,1.0,1.0,1.0,1.0,55.00
2022-11-23 20:20:40.717,1.3186537,0.7222087,0.5684266,1.3417797,1.3492512,0.6532246,0.525929,1.1709677,1.0285239,0.2685963,0.34300607,0.98848844,0.25985014,-0.048343677,-0.14141911,0.28324363,-0.1826703,-0.44722235,-0.7146491,-0.025778513,837.28937,810.696,801.4286,817.1429,868.315,-0.1942138671875,0.0078125,0.9954833984375,3.12530517578125,-2.280426025390625,-2.699127197265625,1,1.0,1.0,1.0,1.0,55.00
2022-11-23 20:20:40.717,1.3186537,0.7222087,0.5684266,1.3417797,1.3492512,0.6532246,0.525929,1.1709677,1.0285239,0.2685963,0.34300607,0.98848844,0.25985014,-0.048343677,-0.14141911,0.28324363,-0.1826703,-0.44722235,-0.7146491,-0.025778513,819.5604,803.44324,804.2491,799.41394,833.663,-0.1942138671875,0.0078125,0.9954833984375,3.12530517578125,-2.280426025390625,-2.699127197265625,1,1.0,1.0,1.0,1.0,55.00
2022-11-23 20:20:40.717,1.3186537,0.7222087,0.5684266,1.3417797,1.3492512,0.6532246,0.525929,1.1709677,1.0285239,0.2685963,0.34300607,0.98848844,0.25985014,-0.048343677,-0.14141911,0.28324363,-0.1826703,-0.44722235,-0.7146491,-0.025778513,790.9524,804.65204,801.4286,768.3883,697.0696,-0.1942138671875,0.0078125,0.9954833984375,3.12530517578125,-2.280426025390625,-2.699127197265625,1,1.0,1.0,1.0,1.0,55.00
2022-11-23 20:20:40.718,1.3186537,0.7222087,0.5684266,1.3417797,1.3492512,0.6532246,0.525929,1.1709677,1.0285239,0.2685963,0.34300607,0.98848844,0.25985014,-0.048343677,-0.14141911,0.28324363,-0.1826703,-0.44722235,-0.7146491,-0.025778513,780.87915,808.2784,801.8315,779.67035,701.0989,-0.1942138671875,0.0078125,0.9954833984375,3.12530517578125,-2.280426025390625,-2.699127197265625,1,1.0,1.0,1.0,1.0,55.00
2022-11-23 20:20:40.718,1.3186537,0.7222087,0.5684266,1.3417797,1.3492512,0.6532246,0.525929,1.1709677,1.0285239,0.2685963,0.34300607,0.98848844,0.25985014,-0.048343677,-0.14141911,0.28324363,-0.1826703,-0.44722235,-0.7146491,-0.025778513,833.2601,805.4579,806.26373,815.9341,983.1502,-0.1942138671875,0.0078125,0.9954833984375,3.12530517578125,-2.280426025390625,-2.699127197265625,1,1.0,1.0,1.0,1.0,55.00
2022-11-23 20:20:40.718,1.3186537,0.7222087,0.5684266,1.3417797,1.3492512,0.6532246,0.525929,1.1709677,1.0285239,0.2685963,0.34300607,0.98848844,0.25985014,-0.048343677,-0.14141911,0.28324363,-0.1826703,-0.44722235,-0.7146491,-0.025778513,846.9597,803.8461,808.2784,813.5165,1143.1135,-0.1942138671875,0.0078125,0.9954833984375,3.12530517578125,-2.280426025390625,-2.699127197265625,1,1.0,1.0,1.0,1.0,55.00
2022-11-23 20:20:40.718,1.3186537,0.7222087,0.5684266,1.3417797,1.3492512,0.6532246,0.525929,1.1709677,1.0285239,0.2685963,0.34300607,0.98848844,0.25985014,-0.048343677,-0.14141911,0.28324363,-0.1826703,-0.44722235,-0.7146491,-0.025778513,790.14655,806.26373,802.6374,783.2967,846.55676,-0.1942138671875,0.0078125,0.9954833984375,3.12530517578125,-2.280426025390625,-2.699127197265625,1,1.0,1.0,1.0,1.0,55.00
2022-11-23 20:20:40.719,1.3186537,0.7222087,0.5684266,1.3417797,1.3492512,0.6532246,0.525929,1.1709677,1.0285239,0.2685963,0.34300607,0.98848844,0.25985014,-0.048343677,-0.14141911,0.28324363,-0.1826703,-0.44722235,-0.7146491,-0.025778513,769.59705,805.8608,801.8315,780.4762,733.73627,-0.1942138671875,0.0078125,0.9954833984375,3.12530517578125,-2.280426025390625,-2.699127197265625,1,1.0,1.0,1.0,1.0,55.00
2022-11-23 20:20:40.719,1.3186537,0.7222087,0.5684266,1.3417797,1.3492512,0.6532246,0.525929,1.1709677,1.0285239,0.2685963,0.34300607,0.98848844,0.25985014,-0.048343677,-0.14141911,0.28324363,-0.1826703,-0.44722235,-0.7146491,-0.025778513,821.1722,803.8461,805.8608,808.68134,866.30035,-0.1942138671875,0.0078125,0.9954833984375,3.12530517578125,-2.280426025390625,-2.699127197265625,1,1.0,1.0,1.0,1.0,55.00
2022-11-23 20:20:40.765,1.3186537,0.7222087,0.5684266,1.3417797,1.3492512,0.6532246,0.525929,1.1709677,1.0285239,0.2685963,0.34300607,0.98848844,0.25985014,-0.048343677,-0.14141911,0.28324363,-0.1826703,-0.44722235,-0.7146491,-0.025778513,826.8132,804.2491,805.05493,809.0842,873.1502,-0.19891357421875,0.009521484375,1.00408935546875,2.1234130859375,-2.8411865234375,-4.18701171875,1,1.0,1.0,1.0,1.0,55.00
2022-11-23 20:20:40.766,1.3186537,0.7222087,0.5684266,1.3417797,1.3492512,0.6532246,0.525929,1.1709677,1.0285239,0.2685963,0.34300607,0.98848844,0.25985014,-0.048343677,-0.14141911,0.28324363,-0.1826703,-0.44722235,-0.7146491,-0.025778513,769.59705,802.6374,804.65204,783.2967,691.02563,-0.19891357421875,0.009521484375,1.00408935546875,2.1234130859375,-2.8411865234375,-4.18701171875,1,1.0,1.0,1.0,1.0,55.00
2022-11-23 20:20:40.766,1.3186537,0.7222087,0.5684266,1.3417797,1.3492512,0.6532246,0.525929,1.1709677,1.0285239,0.2685963,0.34300607,0.98848844,0.25985014,-0.048343677,-0.14141911,0.28324363,-0.1826703,-0.44722235,-0.7146491,-0.025778513,775.2381,801.02563,801.02563,772.01465,580.2198,-0.19891357421875,0.009521484375,1.00408935546875,2.1234130859375,-2.8411865234375,-4.18701171875,1,1.0,1.0,1.0,1.0,55.00
2022-11-23 20:20:40.766,1.3186537,0.7222087,0.5684266,1.3417797,1.3492512,0.6532246,0.525929,1.1709677,1.0285239,0.2685963,0.34300607,0.98848844,0.25985014,-0.048343677,-0.14141911,0.28324363,-0.1826703,-0.44722235,-0.7146491,-0.025778513,802.23444,802.6374,799.41394,795.78754,753.47986,-0.19891357421875,0.009521484375,1.00408935546875,2.1234130859375,-2.8411865234375,-4.18701171875,1,1.0,1.0,1.0,1.0,55.00
2022-11-23 20:20:40.767,1.3186537,0.7222087,0.5684266,1.3417797,1.3492512,0.6532246,0.525929,1.1709677,1.0285239,0.2685963,0.34300607,0.98848844,0.25985014,-0.048343677,-0.14141911,0.28324363,-0.1826703,-0.44722235,-0.7146491,-0.025778513,828.4249,803.44324,801.8315,816.7399,876.77655,-0.19891357421875,0.009521484375,1.00408935546875,2.1234130859375,-2.8411865234375,-4.18701171875,1,1.0,1.0,1.0,1.0,55.00
2022-11-23 20:20:40.767,1.3186537,0.7222087,0.5684266,1.3417797,1.3492512,0.6532246,0.525929,1.1709677,1.0285239,0.2685963,0.34300607,0.98848844,0.25985014,-0.048343677,-0.14141911,0.28324363,-0.1826703,-0.44722235,-0.7146491,-0.025778513,811.50183,804.65204,803.0403,794.17584,793.36993,-0.19891357421875,0.009521484375,1.00408935546875,2.1234130859375,-2.8411865234375,-4.18701171875,1,1.0,1.0,1.0,1.0,55.00
2022-11-23 20:20:40.767,1.3186537,0.7222087,0.5684266,1.3417797,1.3492512,0.6532246,0.525929,1.1709677,1.0285239,0.2685963,0.34300607,0.98848844,0.25985014,-0.048343677,-0.14141911,0.28324363,-0.1826703,-0.44722235,-0.7146491,-0.025778513,778.46155,804.2491,804.65204,772.4176,807.0696,-0.19891357421875,0.009521484375,1.00408935546875,2.1234130859375,-2.8411865234375,-4.18701171875,1,1.0,1.0,1.0,1.0,55.00
2022-11-23 20:20:40.767,1.3186537,0.7222087,0.5684266,1.3417797,1.3492512,0.6532246,0.525929,1.1709677,1.0285239,0.2685963,0.34300607,0.98848844,0.25985014,-0.048343677,-0.14141911,0.28324363,-0.1826703,-0.44722235,-0.7146491,-0.025778513,788.5348,801.02563,797.3993,791.3553,1110.4762,-0.19891357421875,0.009521484375,1.00408935546875,2.1234130859375,-2.8411865234375,-4.18701171875,1,1.0,1.0,1.0,1.0,55.00
2022-11-23 20:20:40.767,1.3186537,0.7222087,0.5684266,1.3417797,1.3492512,0.6532246,0.525929,1.1709677,1.0285239,0.2685963,0.34300607,0.98848844,0.25985014,-0.048343677,-0.14141911,0.28324363,-0.1826703,-0.44722235,-0.7146491,-0.025778513,826.4103,803.44324,795.38464,815.5311,1115.3114,-0.19891357421875,0.009521484375,1.00408935546875,2.1234130859375,-2.8411865234375,-4.18701171875,1,1.0,1.0,1.0,1.0,55.00
2022-11-23 20:20:40.768,1.3186537,0.7222087,0.5684266,1.3417797,1.3492512,0.6532246,0.525929,1.1709677,1.0285239,0.2685963,0.34300607,0.98848844,0.25985014,-0.048343677,-0.14141911,0.28324363,-0.1826703,-0.44722235,-0.7146491,-0.025778513,831.2454,806.26373,799.41394,803.8461,845.34796,-0.19891357421875,0.009521484375,1.00408935546875,2.1234130859375,-2.8411865234375,-4.18701171875,1,1.0,1.0,1.0,1.0,55.00
2022-11-23 20:20:40.768,1.3186537,0.7222087,0.5684266,1.3417797,1.3492512,0.6532246,0.525929,1.1709677,1.0285239,0.2685963,0.34300607,0.98848844,0.25985014,-0.048343677,-0.14141911,0.28324363,-0.1826703,-0.44722235,-0.7146491,-0.025778513,782.0879,802.23444,801.02563,786.52014,599.5604,-0.19891357421875,0.009521484375,1.00408935546875,2.1234130859375,-2.8411865234375,-4.18701171875,1,1.0,1.0,1.0,1.0,55.00
2022-11-23 20:20:40.768,1.3186537,0.7222087,0.5684266,1.3417797,1.3492512,0.6532246,0.525929,1.1709677,1.0285239,0.2685963,0.34300607,0.98848844,0.25985014,-0.048343677,-0.14141911,0.28324363,-0.1826703,-0.44722235,-0.7146491,-0.025778513,794.9817,805.05493,806.26373,794.17584,639.45056,-0.19891357421875,0.009521484375,1.00408935546875,2.1234130859375,-2.8411865234375,-4.18701171875,1,1.0,1.0,1.0,1.0,55.00
2022-11-23 20:20:40.816,1.3186537,0.7222087,0.5684266,1.3417797,1.3492512,0.6532246,0.525929,1.1709677,1.0285239,0.2685963,0.34300607,0.98848844,0.25985014,-0.048343677,-0.14141911,0.28324363,-0.1826703,-0.44722235,-0.7146491,-0.025778513,850.989,810.293,809.4872,820.7692,786.52014,-0.19891357421875,0.009521484375,1.00408935546875,2.1234130859375,-2.8411865234375,-4.18701171875,1,1.0,1.0,1.0,1.0,55.00
2022-11-23 20:20:40.816,1.3186537,0.7222087,0.5684266,1.3417797,1.3492512,0.6532246,0.525929,1.1709677,1.0285239,0.2685963,0.34300607,0.98848844,0.25985014,-0.048343677,-0.14141911,0.28324363,-0.1826703,-0.44722235,-0.7146491,-0.025778513,840.10986,807.0696,807.0696,821.1722,759.5238,-0.19891357421875,0.009521484375,1.00408935546875,2.1234130859375,-2.8411865234375,-4.18701171875,1,1.0,1.0,1.0,1.0,55.00
2022-11-23 20:20:40.816,1.3186537,0.7222087,0.5684266,1.3417797,1.3492512,0.6532246,0.525929,1.1709677,1.0285239,0.2685963,0.34300607,0.98848844,0.25985014,-0.048343677,-0.14141911,0.28324363,-0.1826703,-0.44722235,-0.7146491,-0.025778513,788.1319,805.05493,804.2491,784.10254,629.3773,-0.19891357421875,0.009521484375,1.00408935546875,2.1234130859375,-2.8411865234375,-4.18701171875,1,1.0,1.0,1.0,1.0,55.00
2022-11-23 20:20:40.816,1.3291632,0.9255812,0.7839567,1.3783672,1.3787628,0.7242669,0.6258508,1.1999282,1.013699,0.38788477,0.3428439,0.9769866,0.27249637,-0.021211531,-0.14140885,0.3042347,-0.17758343,-0.42715344,-0.71835095,-0.031218441,771.2088,801.02563,800.2198,776.04395,597.9487,-0.19891357421875,0.009521484375,1.00408935546875,2.1234130859375,-2.8411865234375,-4.18701171875,1,1.0,1.0,1.0,1.0,55.00
2022-11-23 20:20:40.818,1.3291632,0.9255812,0.7839567,1.3783672,1.3787628,0.7242669,0.6258508,1.1999282,1.013699,0.38788477,0.3428439,0.9769866,0.27249637,-0.021211531,-0.14140885,0.3042347,-0.17758343,-0.42715344,-0.71835095,-0.031218441,814.3223,801.4286,799.81683,805.05493,738.5714,-0.19891357421875,0.009521484375,1.00408935546875,2.1234130859375,-2.8411865234375,-4.18701171875,1,1.0,1.0,1.0,1.0,55.00
2022-11-23 20:20:40.818,1.3291632,0.9255812,0.7839567,1.3783672,1.3787628,0.7242669,0.6258508,1.1999282,1.013699,0.38788477,0.3428439,0.9769866,0.27249637,-0.021211531,-0.14140885,0.3042347,-0.17758343,-0.42715344,-0.71835095,-0.031218441,829.2308,797.8022,796.99634,809.4872,911.4286,-0.19891357421875,0.009521484375,1.00408935546875,2.1234130859375,-2.8411865234375,-4.18701171875,1,1.0,1.0,1.0,1.0,55.00
2022-11-23 20:20:40.818,1.3291632,0.9255812,0.7839567,1.3783672,1.3787628,0.7242669,0.6258508,1.1999282,1.013699,0.38788477,0.3428439,0.9769866,0.27249637,-0.021211531,-0.14140885,0.3042347,-0.17758343,-0.42715344,-0.71835095,-0.031218441,778.0586,796.99634,796.5934,785.7143,1120.5494,-0.19891357421875,0.009521484375,1.00408935546875,2.1234130859375,-2.8411865234375,-4.18701171875,1,1.0,1.0,1.0,1.0,55.00
2022-11-23 20:20:40.818,1.3291632,0.9255812,0.7839567,1.3783672,1.3787628,0.7242669,0.6258508,1.1999282,1.013699,0.38788477,0.3428439,0.9769866,0.27249637,-0.021211531,-0.14140885,0.3042347,-0.17758343,-0.42715344,-0.71835095,-0.031218441,753.8828,801.8315,801.8315,779.67035,1040.7693,-0.19891357421875,0.009521484375,1.00408935546875,2.1234130859375,-2.8411865234375,-4.18701171875,1,1.0,1.0,1.0,1.0,55.00
2022-11-23 20:20:40.819,1.3291632,0.9255812,0.7839567,1.3783672,1.3787628,0.7242669,0.6258508,1.1999282,1.013699,0.38788477,0.3428439,0.9769866,0.27249637,-0.021211531,-0.14140885,0.3042347,-0.17758343,-0.42715344,-0.71835095,-0.031218441,800.2198,799.011,801.4286,798.20514,779.2674,-0.19891357421875,0.009521484375,1.00408935546875,2.1234130859375,-2.8411865234375,-4.18701171875,1,1.0,1.0,1.0,1.0,55.00
2022-11-23 20:20:40.819,1.3291632,0.9255812,0.7839567,1.3783672,1.3787628,0.7242669,0.6258508,1.1999282,1.013699,0.38788477,0.3428439,0.9769866,0.27249637,-0.021211531,-0.14140885,0.3042347,-0.17758343,-0.42715344,-0.71835095,-0.031218441,834.87177,800.2198,801.4286,813.91943,877.1795,-0.19891357421875,0.009521484375,1.00408935546875,2.1234130859375,-2.8411865234375,-4.18701171875,1,1.0,1.0,1.0,1.0,55.00
2022-11-23 20:20:40.819,1.3291632,0.9255812,0.7839567,1.3783672,1.3787628,0.7242669,0.6258508,1.1999282,1.013699,0.38788477,0.3428439,0.9769866,0.27249637,-0.021211531,-0.14140885,0.3042347,-0.17758343,-0.42715344,-0.71835095,-0.031218441,808.68134,802.6374,802.23444,799.011,884.0293,-0.19891357421875,0.009521484375,1.00408935546875,2.1234130859375,-2.8411865234375,-4.18701171875,1,1.0,1.0,1.0,1.0,55.00
2022-11-23 20:20:40.819,1.3291632,0.9255812,0.7839567,1.3783672,1.3787628,0.7242669,0.6258508,1.1999282,1.013699,0.38788477,0.3428439,0.9769866,0.27249637,-0.021211531,-0.14140885,0.3042347,-0.17758343,-0.42715344,-0.71835095,-0.031218441,774.43225,799.41394,804.2491,773.22345,745.82416,-0.19891357421875,0.009521484375,1.00408935546875,2.1234130859375,-2.8411865234375,-4.18701171875,1,1.0,1.0,1.0,1.0,55.00
2022-11-23 20:20:40.865,1.3291632,0.9255812,0.7839567,1.3783672,1.3787628,0.7242669,0.6258508,1.1999282,1.013699,0.38788477,0.3428439,0.9769866,0.27249637,-0.021211531,-0.14140885,0.3042347,-0.17758343,-0.42715344,-0.71835095,-0.031218441,787.326,799.011,804.65204,784.90845,753.47986,-0.1964111328125,9.765625E-4,1.0064697265625,1.18133544921875,-3.75335693359375,-4.628143310546875,1,1.0,1.0,1.0,1.0,55.00
2022-11-23 20:20:40.866,1.3291632,0.9255812,0.7839567,1.3783672,1.3787628,0.7242669,0.6258508,1.1999282,1.013699,0.38788477,0.3428439,0.9769866,0.27249637,-0.021211531,-0.14140885,0.3042347,-0.17758343,-0.42715344,-0.71835095,-0.031218441,813.5165,798.20514,801.4286,815.12823,882.8205,-0.1964111328125,9.765625E-4,1.0064697265625,1.18133544921875,-3.75335693359375,-4.628143310546875,1,1.0,1.0,1.0,1.0,55.00
2022-11-23 20:20:40.866,1.3291632,0.9255812,0.7839567,1.3783672,1.3787628,0.7242669,0.6258508,1.1999282,1.013699,0.38788477,0.3428439,0.9769866,0.27249637,-0.021211531,-0.14140885,0.3042347,-0.17758343,-0.42715344,-0.71835095,-0.031218441,813.1135,798.60803,799.011,807.8755,866.7033,-0.1964111328125,9.765625E-4,1.0064697265625,1.18133544921875,-3.75335693359375,-4.628143310546875,1,1.0,1.0,1.0,1.0,55.00
2022-11-23 20:20:40.866,1.3291632,0.9255812,0.7839567,1.3783672,1.3787628,0.7242669,0.6258508,1.1999282,1.013699,0.38788477,0.3428439,0.9769866,0.27249637,-0.021211531,-0.14140885,0.3042347,-0.17758343,-0.42715344,-0.71835095,-0.031218441,772.01465,798.60803,799.41394,769.59705,680.14655,-0.1964111328125,9.765625E-4,1.0064697265625,1.18133544921875,-3.75335693359375,-4.628143310546875,1,1.0,1.0,1.0,1.0,55.00
2022-11-23 20:20:40.867,1.3291632,0.9255812,0.7839567,1.3783672,1.3787628,0.7242669,0.6258508,1.1999282,1.013699,0.38788477,0.3428439,0.9769866,0.27249637,-0.021211531,-0.14140885,0.3042347,-0.17758343,-0.42715344,-0.71835095,-0.031218441,773.6264,796.5934,800.2198,771.2088,696.6667,-0.1964111328125,9.765625E-4,1.0064697265625,1.18133544921875,-3.75335693359375,-4.628143310546875,1,1.0,1.0,1.0,1.0,55.00
2022-11-23 20:20:40.867,1.3291632,0.9255812,0.7839567,1.3783672,1.3787628,0.7242669,0.6258508,1.1999282,1.013699,0.38788477,0.3428439,0.9769866,0.27249637,-0.021211531,-0.14140885,0.3042347,-0.17758343,-0.42715344,-0.71835095,-0.031218441,814.3223,799.81683,802.23444,816.7399,882.4176,-0.1964111328125,9.765625E-4,1.0064697265625,1.18133544921875,-3.75335693359375,-4.628143310546875,1,1.0,1.0,1.0,1.0,55.00
2022-11-23 20:20:40.867,1.3291632,0.9255812,0.7839567,1.3783672,1.3787628,0.7242669,0.6258508,1.1999282,1.013699,0.38788477,0.3428439,0.9769866,0.27249637,-0.021211531,-0.14140885,0.3042347,-0.17758343,-0.42715344,-0.71835095,-0.031218441,809.0842,800.6227,801.8315,818.7546,1039.1575,-0.1964111328125,9.765625E-4,1.0064697265625,1.18133544921875,-3.75335693359375,-4.628143310546875,1,1.0,1.0,1.0,1.0,55.00
2022-11-23 20:20:40.868,1.3291632,0.9255812,0.7839567,1.3783672,1.3787628,0.7242669,0.6258508,1.1999282,1.013699,0.38788477,0.3428439,0.9769866,0.27249637,-0.021211531,-0.14140885,0.3042347,-0.17758343,-0.42715344,-0.71835095,-0.031218441,774.43225,797.8022,801.4286,785.31134,809.89014,-0.1964111328125,9.765625E-4,1.0064697265625,1.18133544921875,-3.75335693359375,-4.628143310546875,1,1.0,1.0,1.0,1.0,55.00
2022-11-23 20:20:40.868,1.3291632,0.9255812,0.7839567,1.3783672,1.3787628,0.7242669,0.6258508,1.1999282,1.013699,0.38788477,0.3428439,0.9769866,0.27249637,-0.021211531,-0.14140885,0.3042347,-0.17758343,-0.42715344,-0.71835095,-0.031218441,775.2381,799.41394,801.4286,779.2674,525.82416,-0.1964111328125,9.765625E-4,1.0064697265625,1.18133544921875,-3.75335693359375,-4.628143310546875,1,1.0,1.0,1.0,1.0,55.00
2022-11-23 20:20:40.869,1.3291632,0.9255812,0.7839567,1.3783672,1.3787628,0.7242669,0.6258508,1.1999282,1.013699,0.38788477,0.3428439,0.9769866,0.27249637,-0.021211531,-0.14140885,0.3042347,-0.17758343,-0.42715344,-0.71835095,-0.031218441,818.3516,803.0403,798.20514,806.26373,707.5458,-0.1964111328125,9.765625E-4,1.0064697265625,1.18133544921875,-3.75335693359375,-4.628143310546875,1,1.0,1.0,1.0,1.0,55.00
2022-11-23 20:20:40.869,1.3291632,0.9255812,0.7839567,1.3783672,1.3787628,0.7242669,0.6258508,1.1999282,1.013699,0.38788477,0.3428439,0.9769866,0.27249637,-0.021211531,-0.14140885,0.3042347,-0.17758343,-0.42715344,-0.71835095,-0.031218441,839.304,803.44324,796.1905,820.3663,1016.5934,-0.1964111328125,9.765625E-4,1.0064697265625,1.18133544921875,-3.75335693359375,-4.628143310546875,1,1.0,1.0,1.0,1.0,55.00
2022-11-23 20:20:40.869,1.3291632,0.9255812,0.7839567,1.3783672,1.3787628,0.7242669,0.6258508,1.1999282,1.013699,0.38788477,0.3428439,0.9769866,0.27249637,-0.021211531,-0.14140885,0.3042347,-0.17758343,-0.42715344,-0.71835095,-0.031218441,808.2784,802.6374,793.7729,791.3553,811.50183,-0.1964111328125,9.765625E-4,1.0064697265625,1.18133544921875,-3.75335693359375,-4.628143310546875,1,1.0,1.0,1.0,1.0,55.00
2022-11-23 20:20:40.915,1.3291632,0.9255812,0.7839567,1.3783672,1.3787628,0.7242669,0.6258508,1.1999282,1.013699,0.38788477,0.3428439,0.9769866,0.27249637,-0.021211531,-0.14140885,0.3042347,-0.17758343,-0.42715344,-0.71835095,-0.031218441,776.4469,800.6227,794.57874,771.6117,625.34796,-0.18511962890625,-0.00311279296875,1.002197265625,2.49725341796875,-2.7215576171875,-3.686065673828125,1,1.0,1.0,1.0,1.0,55.00
2022-11-23 20:20:40.916,1.3291632,0.9255812,0.7839567,1.3783672,1.3787628,0.7242669,0.6258508,1.1999282,1.013699,0.38788477,0.3428439,0.9769866,0.27249637,-0.021211531,-0.14140885,0.3042347,-0.17758343,-0.42715344,-0.71835095,-0.031218441,793.7729,799.011,798.20514,790.14655,820.3663,-0.18511962890625,-0.00311279296875,1.002197265625,2.49725341796875,-2.7215576171875,-3.686065673828125,1,1.0,1.0,1.0,1.0,55.00
2022-11-23 20:20:40.916,1.3291632,0.9255812,0.7839567,1.3783672,1.3787628,0.7242669,0.6258508,1.1999282,1.013699,0.38788477,0.3428439,0.9769866,0.27249637,-0.021211531,-0.14140885,0.3042347,-0.17758343,-0.42715344,-0.71835095,-0.031218441,827.2161,799.81683,794.57874,814.7253,1013.7729,-0.18511962890625,-0.00311279296875,1.002197265625,2.49725341796875,-2.7215576171875,-3.686065673828125,1,1.0,1.0,1.0,1.0,55.00
2022-11-23 20:20:40.916,1.3291632,0.9255812,0.7839567,1.3783672,1.3787628,0.7242669,0.6258508,1.1999282,1.013699,0.38788477,0.3428439,0.9769866,0.27249637,-0.021211531,-0.14140885,0.3042347,-0.17758343,-0.42715344,-0.71835095,-0.031218441,811.50183,799.011,794.17584,805.8608,871.53845,-0.18511962890625,-0.00311279296875,1.002197265625,2.49725341796875,-2.7215576171875,-3.686065673828125,1,1.0,1.0,1.0,1.0,55.00
2022-11-23 20:20:40.916,1.3291632,0.9255812,0.7839567,1.3783672,1.3787628,0.7242669,0.6258508,1.1999282,1.013699,0.38788477,0.3428439,0.9769866,0.27249637,-0.021211531,-0.14140885,0.3042347,-0.17758343,-0.42715344,-0.71835095,-0.031218441,767.5824,803.44324,799.81683,779.67035,669.2674,-0.18511962890625,-0.00311279296875,1.002197265625,2.49725341796875,-2.7215576171875,-3.686065673828125,1,1.0,1.0,1.0,1.0,55.00
2022-11-23 20:20:40.917,1.3357584,1.0757041,0.9341143,1.4073693,1.4013666,0.77652496,0.69724405,1.227391,0.98873526,0.43696594,0.34693947,0.9545649,0.2847778,0.0014435583,-0.14326108,0.31331092,-0.16108191,-0.4080975,-0.71624184,-0.043824486,784.10254,808.68134,803.8461,791.75824,782.8938,-0.18511962890625,-0.00311279296875,1.002197265625,2.49725341796875,-2.7215576171875,-3.686065673828125,1,1.0,1.0,1.0,1.0,55.00
2022-11-23 20:20:40.918,1.3357584,1.0757041,0.9341143,1.4073693,1.4013666,0.77652496,0.69724405,1.227391,0.98873526,0.43696594,0.34693947,0.9545649,0.2847778,0.0014435583,-0.14326108,0.31331092,-0.16108191,-0.4080975,-0.71624184,-0.043824486,825.6044,805.05493,800.6227,817.9487,944.0659,-0.18511962890625,-0.00311279296875,1.002197265625,2.49725341796875,-2.7215576171875,-3.686065673828125,1,1.0,1.0,1.0,1.0,55.00
2022-11-23 20:20:40.918,1.3357584,1.0757041,0.9341143,1.4073693,1.4013666,0.77652496,0.69724405,1.227391,0.98873526,0.43696594,0.34693947,0.9545649,0.2847778,0.0014435583,-0.14326108,0.31331092,-0.16108191,-0.4080975,-0.71624184,-0.043824486,828.022,804.65204,795.78754,807.47253,855.42126,-0.18511962890625,-0.00311279296875,1.002197265625,2.49725341796875,-2.7215576171875,-3.686065673828125,1,1.0,1.0,1.0,1.0,55.00
2022-11-23 20:20:40.918,1.3357584,1.0757041,0.9341143,1.4073693,1.4013666,0.77652496,0.69724405,1.227391,0.98873526,0.43696594,0.34693947,0.9545649,0.2847778,0.0014435583,-0.14326108,0.31331092,-0.16108191,-0.4080975,-0.71624184,-0.043824486,789.34064,807.0696,801.4286,782.49084,645.89746,-0.18511962890625,-0.00311279296875,1.002197265625,2.49725341796875,-2.7215576171875,-3.686065673828125,1,1.0,1.0,1.0,1.0,55.00
2022-11-23 20:20:40.919,1.3357584,1.0757041,0.9341143,1.4073693,1.4013666,0.77652496,0.69724405,1.227391,0.98873526,0.43696594,0.34693947,0.9545649,0.2847778,0.0014435583,-0.14326108,0.31331092,-0.16108191,-0.4080975,-0.71624184,-0.043824486,779.2674,805.8608,801.4286,789.7436,838.49817,-0.18511962890625,-0.00311279296875,1.002197265625,2.49725341796875,-2.7215576171875,-3.686065673828125,1,1.0,1.0,1.0,1.0,55.00
2022-11-23 20:20:40.919,1.3357584,1.0757041,0.9341143,1.4073693,1.4013666,0.77652496,0.69724405,1.227391,0.98873526,0.43696594,0.34693947,0.9545649,0.2847778,0.0014435583,-0.14326108,0.31331092,-0.16108191,-0.4080975,-0.71624184,-0.043824486,812.3077,802.6374,798.20514,823.9927,1092.7472,-0.18511962890625,-0.00311279296875,1.002197265625,2.49725341796875,-2.7215576171875,-3.686065673828125,1,1.0,1.0,1.0,1.0,55.00
2022-11-23 20:20:40.919,1.3357584,1.0757041,0.9341143,1.4073693,1.4013666,0.77652496,0.69724405,1.227391,0.98873526,0.43696594,0.34693947,0.9545649,0.2847778,0.0014435583,-0.14326108,0.31331092,-0.16108191,-0.4080975,-0.71624184,-0.043824486,829.6337,803.8461,799.81683,824.3956,923.91943,-0.18511962890625,-0.00311279296875,1.002197265625,2.49725341796875,-2.7215576171875,-3.686065673828125,1,1.0,1.0,1.0,1.0,55.00
2022-11-23 20:20:40.966,1.3357584,1.0757041,0.9341143,1.4073693,1.4013666,0.77652496,0.69724405,1.227391,0.98873526,0.43696594,0.34693947,0.9545649,0.2847778,0.0014435583,-0.14326108,0.31331092,-0.16108191,-0.4080975,-0.71624184,-0.043824486,787.72894,801.8315,798.60803,789.34064,681.75824,-0.18328857421875,-0.00616455078125,0.99761962890625,3.940277099609375,-1.8841552734375,-3.96270751953125,1,1.0,1.0,1.0,1.0,55.00
