TimeStamp,Delta_TP9,Delta_AF7,Delta_AF8,Delta_TP10,Theta_TP9,Theta_AF7,Theta_AF8,Theta_TP10,Alpha_TP9,Alpha_AF7,Alpha_AF8,Alpha_TP10,Beta_TP9,Beta_AF7,Beta_AF8,Beta_TP10,Gamma_TP9,Gamma_AF7,Gamma_AF8,Gamma_TP10,RAW_TP9,RAW_AF7,RAW_AF8,RAW_TP10,AUX_RIGHT,Accelerometer_X,Accelerometer_Y,Accelerometer_Z,Gyro_X,Gyro_Y,Gyro_Z,HeadBandOn,HSI_TP9,HSI_AF7,HSI_AF8,HSI_TP10,Battery,Elements
2022-11-23 20:21:48.653,0.51623964,-0.31484455,0.019413743,0.7640496,-0.037135307,-0.23252547,-0.35725784,0.33303553,0.43530163,-0.10355876,-0.00407923,0.448568,0.06340809,-0.09466137,-0.08143989,0.1837781,-0.2932983,-0.61929524,-0.51986134,-0.20103936,816.337,804.2491,802.6374,808.2784,803.8461,-0.19207763671875,-0.0172119140625,0.992919921875,3.1402587890625,-0.530853271484375,0.10467529296875,1,1.0,1.0,1.0,1.0,55.00
2022-11-23 20:21:48.654,0.51623964,-0.31484455,0.019413743,0.7640496,-0.037135307,-0.23252547,-0.35725784,0.33303553,0.43530163,-0.10355876,-0.00407923,0.448568,0.06340809,-0.09466137,-0.08143989,0.1837781,-0.2932983,-0.61929524,-0.51986134,-0.20103936,782.0879,804.65204,803.0403,792.96704,646.7033,-0.19207763671875,-0.0172119140625,0.992919921875,3.1402587890625,-0.530853271484375,0.10467529296875,1,1.0,1.0,1.0,1.0,55.00
2022-11-23 20:21:48.654,0.51623964,-0.31484455,0.019413743,0.7640496,-0.037135307,-0.23252547,-0.35725784,0.33303553,0.43530163,-0.10355876,-0.00407923,0.448568,0.06340809,-0.09466137,-0.08143989,0.1837781,-0.2932983,-0.61929524,-0.51986134,-0.20103936,799.41394,805.05493,804.65204,808.2784,644.2857,-0.19207763671875,-0.0172119140625,0.992919921875,3.1402587890625,-0.530853271484375,0.10467529296875,1,1.0,1.0,1.0,1.0,55.00
2022-11-23 20:21:48.655,0.51623964,-0.31484455,0.019413743,0.7640496,-0.037135307,-0.23252547,-0.35725784,0.33303553,0.43530163,-0.10355876,-0.00407923,0.448568,0.06340809,-0.09466137,-0.08143989,0.1837781,-0.2932983,-0.61929524,-0.51986134,-0.20103936,837.6923,801.8315,804.65204,823.9927,818.7546,-0.19207763671875,-0.0172119140625,0.992919921875,3.1402587890625,-0.530853271484375,0.10467529296875,1,1.0,1.0,1.0,1.0,55.00
2022-11-23 20:21:48.655,0.51623964,-0.31484455,0.019413743,0.7640496,-0.037135307,-0.23252547,-0.35725784,0.33303553,0.43530163,-0.10355876,-0.00407923,0.448568,0.06340809,-0.09466137,-0.08143989,0.1837781,-0.2932983,-0.61929524,-0.51986134,-0.20103936,828.022,800.6227,803.44324,820.3663,865.89746,-0.19207763671875,-0.0172119140625,0.992919921875,3.1402587890625,-0.530853271484375,0.10467529296875,1,1.0,1.0,1.0,1.0,55.00
2022-11-23 20:21:48.655,0.51623964,-0.31484455,0.019413743,0.7640496,-0.037135307,-0.23252547,-0.35725784,0.33303553,0.43530163,-0.10355876,-0.00407923,0.448568,0.06340809,-0.09466137,-0.08143989,0.1837781,-0.2932983,-0.61929524,-0.51986134,-0.20103936,784.10254,798.60803,799.011,796.5934,758.315,-0.19207763671875,-0.0172119140625,0.992919921875,3.1402587890625,-0.530853271484375,0.10467529296875,1,1.0,1.0,1.0,1.0,55.00
2022-11-23 20:21:48.656,0.51623964,-0.31484455,0.019413743,0.7640496,-0.037135307,-0.23252547,-0.35725784,0.33303553,0.43530163,-0.10355876,-0.00407923,0.448568,0.06340809,-0.09466137,-0.08143989,0.1837781,-0.2932983,-0.61929524,-0.51986134,-0.20103936,778.86444,801.4286,798.60803,790.54944,732.1245,-0.19207763671875,-0.0172119140625,0.992919921875,3.1402587890625,-0.530853271484375,0.10467529296875,1,1.0,1.0,1.0,1.0,55.00
2022-11-23 20:21:48.656,0.5131945,-0.31727558,-0.0017575546,0.7625679,-0.044671863,-0.22194242,-0.39273083,0.3303053,0.41383147,-0.10355876,-0.00407923,0.46012196,0.059236065,-0.082965545,-0.087874,0.19659336,-0.31479782,-0.6262697,-0.53386205,-0.18925638,817.1429,802.23444,803.8461,821.978,790.14655,-0.19207763671875,-0.0172119140625,0.992919921875,3.1402587890625,-0.530853271484375,0.10467529296875,1,1.0,1.0,1.0,1.0,55.00
2022-11-23 20:21:48.657,0.5131945,-0.31727558,-0.0017575546,0.7625679,-0.044671863,-0.22194242,-0.39273083,0.3303053,0.41383147,-0.10355876,-0.00407923,0.46012196,0.059236065,-0.082965545,-0.087874,0.19659336,-0.31479782,-0.6262697,-0.53386205,-0.18925638,835.6777,803.44324,804.65204,832.4542,1050.4396,-0.19207763671875,-0.0172119140625,0.992919921875,3.1402587890625,-0.530853271484375,0.10467529296875,1,1.0,1.0,1.0,1.0,55.00
2022-11-23 20:21:48.657,0.5131945,-0.31727558,-0.0017575546,0.7625679,-0.044671863,-0.22194242,-0.39273083,0.3303053,0.41383147,-0.10355876,-0.00407923,0.46012196,0.059236065,-0.082965545,-0.087874,0.19659336,-0.31479782,-0.6262697,-0.53386205,-0.18925638,799.41394,807.0696,803.44324,804.2491,1008.93774,-0.19207763671875,-0.0172119140625,0.992919921875,3.1402587890625,-0.530853271484375,0.10467529296875,1,1.0,1.0,1.0,1.0,55.00
2022-11-23 20:21:48.658,0.5131945,-0.31727558,-0.0017575546,0.7625679,-0.044671863,-0.22194242,-0.39273083,0.3303053,0.41383147,-0.10355876,-0.00407923,0.46012196,0.059236065,-0.082965545,-0.087874,0.19659336,-0.31479782,-0.6262697,-0.53386205,-0.18925638,778.46155,805.4579,803.44324,788.93774,658.7912,-0.19207763671875,-0.0172119140625,0.992919921875,3.1402587890625,-0.530853271484375,0.10467529296875,1,1.0,1.0,1.0,1.0,55.00
2022-11-23 20:21:48.658,0.5131945,-0.31727558,-0.0017575546,0.7625679,-0.044671863,-0.22194242,-0.39273083,0.3303053,0.41383147,-0.10355876,-0.00407923,0.46012196,0.059236065,-0.082965545,-0.087874,0.19659336,-0.31479782,-0.6262697,-0.53386205,-0.18925638,816.7399,805.4579,803.44324,818.7546,783.2967,-0.19207763671875,-0.0172119140625,0.992919921875,3.1402587890625,-0.530853271484375,0.10467529296875,1,1.0,1.0,1.0,1.0,55.00
2022-11-23 20:21:48.689,0.5131945,-0.31727558,-0.0017575546,0.7625679,-0.044671863,-0.22194242,-0.39273083,0.3303053,0.41383147,-0.10355876,-0.00407923,0.46012196,0.059236065,-0.082965545,-0.087874,0.19659336,-0.31479782,-0.6262697,-0.53386205,-0.18925638,841.7216,807.0696,806.6667,839.304,950.10986,-0.19915771484375,-0.0233154296875,1.00408935546875,3.013153076171875,0.1495361328125,-0.725250244140625,1,1.0,1.0,1.0,1.0,55.00
2022-11-23 20:21:48.689,0.5131945,-0.31727558,-0.0017575546,0.7625679,-0.044671863,-0.22194242,-0.39273083,0.3303053,0.41383147,-0.10355876,-0.00407923,0.46012196,0.059236065,-0.082965545,-0.087874,0.19659336,-0.31479782,-0.6262697,-0.53386205,-0.18925638,807.47253,803.44324,805.8608,812.3077,791.75824,-0.19915771484375,-0.0233154296875,1.00408935546875,3.013153076171875,0.1495361328125,-0.725250244140625,1,1.0,1.0,1.0,1.0,55.00
2022-11-23 20:21:48.690,0.5131945,-0.31727558,-0.0017575546,0.7625679,-0.044671863,-0.22194242,-0.39273083,0.3303053,0.41383147,-0.10355876,-0.00407923,0.46012196,0.059236065,-0.082965545,-0.087874,0.19659336,-0.31479782,-0.6262697,-0.53386205,-0.18925638,780.07324,803.44324,804.2491,793.7729,603.1868,-0.19915771484375,-0.0233154296875,1.00408935546875,3.013153076171875,0.1495361328125,-0.725250244140625,1,1.0,1.0,1.0,1.0,55.00
2022-11-23 20:21:48.690,0.5131945,-0.31727558,-0.0017575546,0.7625679,-0.044671863,-0.22194242,-0.39273083,0.3303053,0.41383147,-0.10355876,-0.00407923,0.46012196,0.059236065,-0.082965545,-0.087874,0.19659336,-0.31479782,-0.6262697,-0.53386205,-0.18925638,807.8755,806.26373,805.05493,809.0842,717.619,-0.19915771484375,-0.0233154296875,1.00408935546875,3.013153076171875,0.1495361328125,-0.725250244140625,1,1.0,1.0,1.0,1.0,55.00
2022-11-23 20:21:48.690,0.5131945,-0.31727558,-0.0017575546,0.7625679,-0.044671863,-0.22194242,-0.39273083,0.3303053,0.41383147,-0.10355876,-0.00407923,0.46012196,0.059236065,-0.082965545,-0.087874,0.19659336,-0.31479782,-0.6262697,-0.53386205,-0.18925638,844.5421,803.8461,802.6374,827.619,919.0842,-0.19915771484375,-0.0233154296875,1.00408935546875,3.013153076171875,0.1495361328125,-0.725250244140625,1,1.0,1.0,1.0,1.0,55.00
2022-11-23 20:21:48.690,0.5131945,-0.31727558,-0.0017575546,0.7625679,-0.044671863,-0.22194242,-0.39273083,0.3303053,0.41383147,-0.10355876,-0.00407923,0.46012196,0.059236065,-0.082965545,-0.087874,0.19659336,-0.31479782,-0.6262697,-0.53386205,-0.18925638,826.8132,803.8461,801.4286,822.7839,879.59705,-0.19915771484375,-0.0233154296875,1.00408935546875,3.013153076171875,0.1495361328125,-0.725250244140625,1,1.0,1.0,1.0,1.0,55.00
2022-11-23 20:21:48.691,0.5131945,-0.31727558,-0.0017575546,0.7625679,-0.044671863,-0.22194242,-0.39273083,0.3303053,0.41383147,-0.10355876,-0.00407923,0.46012196,0.059236065,-0.082965545,-0.087874,0.19659336,-0.31479782,-0.6262697,-0.53386205,-0.18925638,782.49084,806.26373,800.6227,796.1905,710.3663,-0.19915771484375,-0.0233154296875,1.00408935546875,3.013153076171875,0.1495361328125,-0.725250244140625,1,1.0,1.0,1.0,1.0,55.00
2022-11-23 20:21:48.691,0.5131945,-0.31727558,-0.0017575546,0.7625679,-0.044671863,-0.22194242,-0.39273083,0.3303053,0.41383147,-0.10355876,-0.00407923,0.46012196,0.059236065,-0.082965545,-0.087874,0.19659336,-0.31479782,-0.6262697,-0.53386205,-0.18925638,787.326,802.6374,797.8022,794.17584,858.6447,-0.19915771484375,-0.0233154296875,1.00408935546875,3.013153076171875,0.1495361328125,-0.725250244140625,1,1.0,1.0,1.0,1.0,55.00
2022-11-23 20:21:48.691,0.5131945,-0.31727558,-0.0017575546,0.7625679,-0.044671863,-0.22194242,-0.39273083,0.3303053,0.41383147,-0.10355876,-0.00407923,0.46012196,0.059236065,-0.082965545,-0.087874,0.19659336,-0.31479782,-0.6262697,-0.53386205,-0.18925638,821.1722,797.8022,796.99634,824.3956,1201.9414,-0.19915771484375,-0.0233154296875,1.00408935546875,3.013153076171875,0.1495361328125,-0.725250244140625,1,1.0,1.0,1.0,1.0,55.00
2022-11-23 20:21:48.691,0.5131945,-0.31727558,-0.0017575546,0.7625679,-0.044671863,-0.22194242,-0.39273083,0.3303053,0.41383147,-0.10355876,-0.00407923,0.46012196,0.059236065,-0.082965545,-0.087874,0.19659336,-0.31479782,-0.6262697,-0.53386205,-0.18925638,818.7546,801.4286,799.81683,820.7692,971.06226,-0.19915771484375,-0.0233154296875,1.00408935546875,3.013153076171875,0.1495361328125,-0.725250244140625,1,1.0,1.0,1.0,1.0,55.00
2022-11-23 20:21:48.692,0.5131945,-0.31727558,-0.0017575546,0.7625679,-0.044671863,-0.22194242,-0.39273083,0.3303053,0.41383147,-0.10355876,-0.00407923,0.46012196,0.059236065,-0.082965545,-0.087874,0.19659336,-0.31479782,-0.6262697,-0.53386205,-0.18925638,778.0586,803.0403,799.81683,786.52014,616.8865,-0.19915771484375,-0.0233154296875,1.00408935546875,3.013153076171875,0.1495361328125,-0.725250244140625,1,1.0,1.0,1.0,1.0,55.00
2022-11-23 20:21:48.692,0.5131945,-0.31727558,-0.0017575546,0.7625679,-0.044671863,-0.22194242,-0.39273083,0.3303053,0.41383147,-0.10355876,-0.00407923,0.46012196,0.059236065,-0.082965545,-0.087874,0.19659336,-0.31479782,-0.6262697,-0.53386205,-0.18925638,767.1795,796.99634,798.60803,776.4469,576.5934,-0.19915771484375,-0.0233154296875,1.00408935546875,3.013153076171875,0.1495361328125,-0.725250244140625,1,1.0,1.0,1.0,1.0,55.00
2022-11-23 20:21:48.741,0.5131945,-0.31727558,-0.0017575546,0.7625679,-0.044671863,-0.22194242,-0.39273083,0.3303053,0.41383147,-0.10355876,-0.00407923,0.46012196,0.059236065,-0.082965545,-0.087874,0.19659336,-0.31479782,-0.6262697,-0.53386205,-0.18925638,801.4286,794.57874,797.8022,801.8315,722.0513,-0.189453125,-0.01812744140625,0.9920654296875,3.349609375,-2.714080810546875,-0.2392578125,1,1.0,1.0,1.0,1.0,55.00
2022-11-23 20:21:48.741,0.5131945,-0.31727558,-0.0017575546,0.7625679,-0.044671863,-0.22194242,-0.39273083,0.3303053,0.41383147,-0.10355876,-0.00407923,0.46012196,0.059236065,-0.082965545,-0.087874,0.19659336,-0.31479782,-0.6262697,-0.53386205,-0.18925638,813.1135,794.9817,799.011,810.696,788.1319,-0.189453125,-0.01812744140625,0.9920654296875,3.349609375,-2.714080810546875,-0.2392578125,1,1.0,1.0,1.0,1.0,55.00
2022-11-23 20:21:48.742,0.5131945,-0.31727558,-0.0017575546,0.7625679,-0.044671863,-0.22194242,-0.39273083,0.3303053,0.41383147,-0.10355876,-0.00407923,0.46012196,0.059236065,-0.082965545,-0.087874,0.19659336,-0.31479782,-0.6262697,-0.53386205,-0.18925638,779.2674,796.99634,801.4286,783.2967,654.7619,-0.189453125,-0.01812744140625,0.9920654296875,3.349609375,-2.714080810546875,-0.2392578125,1,1.0,1.0,1.0,1.0,55.00
2022-11-23 20:21:48.742,0.5131945,-0.31727558,-0.0017575546,0.7625679,-0.044671863,-0.22194242,-0.39273083,0.3303053,0.41383147,-0.10355876,-0.00407923,0.46012196,0.059236065,-0.082965545,-0.087874,0.19659336,-0.31479782,-0.6262697,-0.53386205,-0.18925638,759.92676,798.20514,803.0403,767.98535,570.54944,-0.189453125,-0.01812744140625,0.9920654296875,3.349609375,-2.714080810546875,-0.2392578125,1,1.0,1.0,1.0,1.0,55.00
2022-11-23 20:21:48.742,0.5131945,-0.31727558,-0.0017575546,0.7625679,-0.044671863,-0.22194242,-0.39273083,0.3303053,0.41383147,-0.10355876,-0.00407923,0.46012196,0.059236065,-0.082965545,-0.087874,0.19659336,-0.31479782,-0.6262697,-0.53386205,-0.18925638,795.78754,801.02563,802.23444,792.96704,731.31866,-0.189453125,-0.01812744140625,0.9920654296875,3.349609375,-2.714080810546875,-0.2392578125,1,1.0,1.0,1.0,1.0,55.00
2022-11-23 20:21:48.743,0.5131945,-0.31727558,-0.0017575546,0.7625679,-0.044671863,-0.22194242,-0.39273083,0.3303053,0.41383147,-0.10355876,-0.00407923,0.46012196,0.059236065,-0.082965545,-0.087874,0.19659336,-0.31479782,-0.6262697,-0.53386205,-0.18925638,825.2015,803.44324,803.44324,806.6667,909.41394,-0.189453125,-0.01812744140625,0.9920654296875,3.349609375,-2.714080810546875,-0.2392578125,1,1.0,1.0,1.0,1.0,55.00
2022-11-23 20:21:48.743,0.5131945,-0.31727558,-0.0017575546,0.7625679,-0.044671863,-0.22194242,-0.39273083,0.3303053,0.41383147,-0.10355876,-0.00407923,0.46012196,0.059236065,-0.082965545,-0.087874,0.19659336,-0.31479782,-0.6262697,-0.53386205,-0.18925638,792.1612,801.02563,802.6374,786.9231,823.9927,-0.189453125,-0.01812744140625,0.9920654296875,3.349609375,-2.714080810546875,-0.2392578125,1,1.0,1.0,1.0,1.0,55.00
2022-11-23 20:21:48.743,0.5131945,-0.31727558,-0.0017575546,0.7625679,-0.044671863,-0.22194242,-0.39273083,0.3303053,0.41383147,-0.10355876,-0.00407923,0.46012196,0.059236065,-0.082965545,-0.087874,0.19659336,-0.31479782,-0.6262697,-0.53386205,-0.18925638,756.7033,803.0403,801.4286,769.19415,837.6923,-0.189453125,-0.01812744140625,0.9920654296875,3.349609375,-2.714080810546875,-0.2392578125,1,1.0,1.0,1.0,1.0,55.00
2022-11-23 20:21:48.743,0.5131945,-0.31727558,-0.0017575546,0.7625679,-0.044671863,-0.22194242,-0.39273083,0.3303053,0.41383147,-0.10355876,-0.00407923,0.46012196,0.059236065,-0.082965545,-0.087874,0.19659336,-0.31479782,-0.6262697,-0.53386205,-0.18925638,776.04395,803.0403,803.44324,787.72894,865.09155,-0.189453125,-0.01812744140625,0.9920654296875,3.349609375,-2.714080810546875,-0.2392578125,1,1.0,1.0,1.0,1.0,55.00
2022-11-23 20:21:48.744,0.505356,-0.31442666,-0.027468687,0.753467,-0.04856691,-0.2198428,-0.4192238,0.33937186,0.41602215,-0.10355876,-0.00407923,0.4678442,0.06077574,-0.075658314,-0.09991317,0.21328026,-0.32770917,-0.62026155,-0.5385193,-0.17746049,816.337,804.65204,806.26373,813.5165,801.8315,-0.189453125,-0.01812744140625,0.9920654296875,3.349609375,-2.714080810546875,-0.2392578125,1,1.0,1.0,1.0,1.0,55.00
2022-11-23 20:21:48.745,0.505356,-0.31442666,-0.027468687,0.753467,-0.04856691,-0.2198428,-0.4192238,0.33937186,0.41602215,-0.10355876,-0.00407923,0.4678442,0.06077574,-0.075658314,-0.09991317,0.21328026,-0.32770917,-0.62026155,-0.5385193,-0.17746049,809.0842,809.4872,804.2491,803.44324,814.7253,-0.189453125,-0.01812744140625,0.9920654296875,3.349609375,-2.714080810546875,-0.2392578125,1,1.0,1.0,1.0,1.0,55.00
2022-11-23 20:21:48.745,0.505356,-0.31442666,-0.027468687,0.753467,-0.04856691,-0.2198428,-0.4192238,0.33937186,0.41602215,-0.10355876,-0.00407923,0.4678442,0.06077574,-0.075658314,-0.09991317,0.21328026,-0.32770917,-0.62026155,-0.5385193,-0.17746049,765.56775,809.89014,797.8022,767.98535,735.7509,-0.189453125,-0.01812744140625,0.9920654296875,3.349609375,-2.714080810546875,-0.2392578125,1,1.0,1.0,1.0,1.0,55.00
2022-11-23 20:21:48.800,0.505356,-0.31442666,-0.027468687,0.753467,-0.04856691,-0.2198428,-0.4192238,0.33937186,0.41602215,-0.10355876,-0.00407923,0.4678442,0.06077574,-0.075658314,-0.09991317,0.21328026,-0.32770917,-0.62026155,-0.5385193,-0.17746049,772.8205,809.4872,801.4286,774.0293,679.7436,-0.19091796875,-0.0211181640625,1.00518798828125,3.491668701171875,-1.36077880859375,0.28411865234375,1,1.0,1.0,1.0,1.0,55.00
2022-11-23 20:21:48.801,0.505356,-0.31442666,-0.027468687,0.753467,-0.04856691,-0.2198428,-0.4192238,0.33937186,0.41602215,-0.10355876,-0.00407923,0.4678442,0.06077574,-0.075658314,-0.09991317,0.21328026,-0.32770917,-0.62026155,-0.5385193,-0.17746049,812.71063,807.47253,806.26373,811.50183,827.619,-0.19091796875,-0.0211181640625,1.00518798828125,3.491668701171875,-1.36077880859375,0.28411865234375,1,1.0,1.0,1.0,1.0,55.00
2022-11-23 20:21:48.801,0.505356,-0.31442666,-0.027468687,0.753467,-0.04856691,-0.2198428,-0.4192238,0.33937186,0.41602215,-0.10355876,-0.00407923,0.4678442,0.06077574,-0.075658314,-0.09991317,0.21328026,-0.32770917,-0.62026155,-0.5385193,-0.17746049,815.5311,808.2784,804.65204,809.0842,927.5458,-0.19091796875,-0.0211181640625,1.00518798828125,3.491668701171875,-1.36077880859375,0.28411865234375,1,1.0,1.0,1.0,1.0,55.00
2022-11-23 20:21:48.802,0.505356,-0.31442666,-0.027468687,0.753467,-0.04856691,-0.2198428,-0.4192238,0.33937186,0.41602215,-0.10355876,-0.00407923,0.4678442,0.06077574,-0.075658314,-0.09991317,0.21328026,-0.32770917,-0.62026155,-0.5385193,-0.17746049,783.69965,809.0842,805.4579,781.685,748.24176,-0.19091796875,-0.0211181640625,1.00518798828125,3.491668701171875,-1.36077880859375,0.28411865234375,1,1.0,1.0,1.0,1.0,55.00
2022-11-23 20:21:48.802,0.505356,-0.31442666,-0.027468687,0.753467,-0.04856691,-0.2198428,-0.4192238,0.33937186,0.41602215,-0.10355876,-0.00407923,0.4678442,0.06077574,-0.075658314,-0.09991317,0.21328026,-0.32770917,-0.62026155,-0.5385193,-0.17746049,767.98535,804.65204,801.8315,772.4176,586.26373,-0.19091796875,-0.0211181640625,1.00518798828125,3.491668701171875,-1.36077880859375,0.28411865234375,1,1.0,1.0,1.0,1.0,55.00
2022-11-23 20:21:48.802,0.505356,-0.31442666,-0.027468687,0.753467,-0.04856691,-0.2198428,-0.4192238,0.33937186,0.41602215,-0.10355876,-0.00407923,0.4678442,0.06077574,-0.075658314,-0.09991317,0.21328026,-0.32770917,-0.62026155,-0.5385193,-0.17746049,801.8315,798.60803,800.2198,800.2198,697.0696,-0.19091796875,-0.0211181640625,1.00518798828125,3.491668701171875,-1.36077880859375,0.28411865234375,1,1.0,1.0,1.0,1.0,55.00
2022-11-23 20:21:48.803,0.505356,-0.31442666,-0.027468687,0.753467,-0.04856691,-0.2198428,-0.4192238,0.33937186,0.41602215,-0.10355876,-0.00407923,0.4678442,0.06077574,-0.075658314,-0.09991317,0.21328026,-0.32770917,-0.62026155,-0.5385193,-0.17746049,820.7692,801.02563,802.6374,812.3077,948.9011,-0.19091796875,-0.0211181640625,1.00518798828125,3.491668701171875,-1.36077880859375,0.28411865234375,1,1.0,1.0,1.0,1.0,55.00
2022-11-23 20:21:48.803,0.505356,-0.31442666,-0.027468687,0.753467,-0.04856691,-0.2198428,-0.4192238,0.33937186,0.41602215,-0.10355876,-0.00407923,0.4678442,0.06077574,-0.075658314,-0.09991317,0.21328026,-0.32770917,-0.62026155,-0.5385193,-0.17746049,782.8938,801.8315,803.0403,787.326,986.77655,-0.19091796875,-0.0211181640625,1.00518798828125,3.491668701171875,-1.36077880859375,0.28411865234375,1,1.0,1.0,1.0,1.0,55.00
2022-11-23 20:21:48.803,0.505356,-0.31442666,-0.027468687,0.753467,-0.04856691,-0.2198428,-0.4192238,0.33937186,0.41602215,-0.10355876,-0.00407923,0.4678442,0.06077574,-0.075658314,-0.09991317,0.21328026,-0.32770917,-0.62026155,-0.5385193,-0.17746049,754.2857,798.20514,800.2198,765.56775,683.7729,-0.19091796875,-0.0211181640625,1.00518798828125,3.491668701171875,-1.36077880859375,0.28411865234375,1,1.0,1.0,1.0,1.0,55.00
2022-11-23 20:21:48.803,0.505356,-0.31442666,-0.027468687,0.753467,-0.04856691,-0.2198428,-0.4192238,0.33937186,0.41602215,-0.10355876,-0.00407923,0.4678442,0.06077574,-0.075658314,-0.09991317,0.21328026,-0.32770917,-0.62026155,-0.5385193,-0.17746049,790.9524,800.6227,796.5934,786.1172,712.7839,-0.19091796875,-0.0211181640625,1.00518798828125,3.491668701171875,-1.36077880859375,0.28411865234375,1,1.0,1.0,1.0,1.0,55.00
2022-11-23 20:21:48.804,0.505356,-0.31442666,-0.027468687,0.753467,-0.04856691,-0.2198428,-0.4192238,0.33937186,0.41602215,-0.10355876,-0.00407923,0.4678442,0.06077574,-0.075658314,-0.09991317,0.21328026,-0.32770917,-0.62026155,-0.5385193,-0.17746049,828.4249,801.4286,799.81683,819.5604,979.5238,-0.19091796875,-0.0211181640625,1.00518798828125,3.491668701171875,-1.36077880859375,0.28411865234375,1,1.0,1.0,1.0,1.0,55.00
2022-11-23 20:21:48.804,0.505356,-0.31442666,-0.027468687,0.753467,-0.04856691,-0.2198428,-0.4192238,0.33937186,0.41602215,-0.10355876,-0.00407923,0.4678442,0.06077574,-0.075658314,-0.09991317,0.21328026,-0.32770917,-0.62026155,-0.5385193,-0.17746049,797.8022,804.2491,803.0403,800.2198,959.7802,-0.19091796875,-0.0211181640625,1.00518798828125,3.491668701171875,-1.36077880859375,0.28411865234375,1,1.0,1.0,1.0,1.0,55.00
2022-11-23 20:21:48.826,0.505356,-0.31442666,-0.027468687,0.753467,-0.04856691,-0.2198428,-0.4192238,0.33937186,0.41602215,-0.10355876,-0.00407923,0.4678442,0.06077574,-0.075658314,-0.09991317,0.21328026,-0.32770917,-0.62026155,-0.5385193,-0.17746049,761.9414,805.4579,801.4286,759.92676,749.0476,-0.192138671875,-0.01904296875,1.0008544921875,4.942169189453125,-0.710296630859375,-0.97198486328125,1,1.0,1.0,1.0,1.0,55.00
2022-11-23 20:21:48.826,0.505356,-0.31442666,-0.027468687,0.753467,-0.04856691,-0.2198428,-0.4192238,0.33937186,0.41602215,-0.10355876,-0.00407923,0.4678442,0.06077574,-0.075658314,-0.09991317,0.21328026,-0.32770917,-0.62026155,-0.5385193,-0.17746049,776.8498,802.6374,803.0403,772.4176,724.4689,-0.192138671875,-0.01904296875,1.0008544921875,4.942169189453125,-0.710296630859375,-0.97198486328125,1,1.0,1.0,1.0,1.0,55.00
2022-11-23 20:21:48.827,0.505356,-0.31442666,-0.027468687,0.753467,-0.04856691,-0.2198428,-0.4192238,0.33937186,0.41602215,-0.10355876,-0.00407923,0.4678442,0.06077574,-0.075658314,-0.09991317,0.21328026,-0.32770917,-0.62026155,-0.5385193,-0.17746049,812.71063,800.2198,803.0403,810.293,918.2784,-0.192138671875,-0.01904296875,1.0008544921875,4.942169189453125,-0.710296630859375,-0.97198486328125,1,1.0,1.0,1.0,1.0,55.00
2022-11-23 20:21:48.827,0.505356,-0.31442666,-0.027468687,0.753467,-0.04856691,-0.2198428,-0.4192238,0.33937186,0.41602215,-0.10355876,-0.00407923,0.4678442,0.06077574,-0.075658314,-0.09991317,0.21328026,-0.32770917,-0.62026155,-0.5385193,-0.17746049,806.26373,801.4286,803.0403,797.3993,915.8608,-0.192138671875,-0.01904296875,1.0008544921875,4.942169189453125,-0.710296630859375,-0.97198486328125,1,1.0,1.0,1.0,1.0,55.00
2022-11-23 20:21:48.827,0.505356,-0.31442666,-0.027468687,0.753467,-0.04856691,-0.2198428,-0.4192238,0.33937186,0.41602215,-0.10355876,-0.00407923,0.4678442,0.06077574,-0.075658314,-0.09991317,0.21328026,-0.32770917,-0.62026155,-0.5385193,-0.17746049,769.19415,805.05493,801.02563,766.3736,642.27106,-0.192138671875,-0.01904296875,1.0008544921875,4.942169189453125,-0.710296630859375,-0.97198486328125,1,1.0,1.0,1.0,1.0,55.00
2022-11-23 20:21:48.827,0.505356,-0.31442666,-0.027468687,0.753467,-0.04856691,-0.2198428,-0.4192238,0.33937186,0.41602215,-0.10355876,-0.00407923,0.4678442,0.06077574,-0.075658314,-0.09991317,0.21328026,-0.32770917,-0.62026155,-0.5385193,-0.17746049,767.5824,799.81683,798.20514,770.0,623.73627,-0.192138671875,-0.01904296875,1.0008544921875,4.942169189453125,-0.710296630859375,-0.97198486328125,1,1.0,1.0,1.0,1.0,55.00
2022-11-23 20:21:48.828,0.505356,-0.31442666,-0.027468687,0.753467,-0.04856691,-0.2198428,-0.4192238,0.33937186,0.41602215,-0.10355876,-0.00407923,0.4678442,0.06077574,-0.075658314,-0.09991317,0.21328026,-0.32770917,-0.62026155,-0.5385193,-0.17746049,797.3993,797.3993,800.6227,800.6227,1027.8755,-0.192138671875,-0.01904296875,1.0008544921875,4.942169189453125,-0.710296630859375,-0.97198486328125,1,1.0,1.0,1.0,1.0,55.00
2022-11-23 20:21:48.828,0.505356,-0.31442666,-0.027468687,0.753467,-0.04856691,-0.2198428,-0.4192238,0.33937186,0.41602215,-0.10355876,-0.00407923,0.4678442,0.06077574,-0.075658314,-0.09991317,0.21328026,-0.32770917,-0.62026155,-0.5385193,-0.17746049,812.3077,801.8315,796.5934,805.05493,1069.7803,-0.192138671875,-0.01904296875,1.0008544921875,4.942169189453125,-0.710296630859375,-0.97198486328125,1,1.0,1.0,1.0,1.0,55.00
2022-11-23 20:21:48.828,0.505356,-0.31442666,-0.027468687,0.753467,-0.04856691,-0.2198428,-0.4192238,0.33937186,0.41602215,-0.10355876,-0.00407923,0.4678442,0.06077574,-0.075658314,-0.09991317,0.21328026,-0.32770917,-0.62026155,-0.5385193,-0.17746049,784.5055,803.8461,795.38464,779.2674,732.52747,-0.192138671875,-0.01904296875,1.0008544921875,4.942169189453125,-0.710296630859375,-0.97198486328125,1,1.0,1.0,1.0,1.0,55.00
2022-11-23 20:21:48.828,0.505356,-0.31442666,-0.027468687,0.753467,-0.04856691,-0.2198428,-0.4192238,0.33937186,0.41602215,-0.10355876,-0.00407923,0.4678442,0.06077574,-0.075658314,-0.09991317,0.21328026,-0.32770917,-0.62026155,-0.5385193,-0.17746049,765.16486,806.26373,799.81683,772.8205,624.5421,-0.192138671875,-0.01904296875,1.0008544921875,4.942169189453125,-0.710296630859375,-0.97198486328125,1,1.0,1.0,1.0,1.0,55.00
2022-11-23 20:21:48.829,0.505356,-0.31442666,-0.027468687,0.753467,-0.04856691,-0.2198428,-0.4192238,0.33937186,0.41602215,-0.10355876,-0.00407923,0.4678442,0.06077574,-0.075658314,-0.09991317,0.21328026,-0.32770917,-0.62026155,-0.5385193,-0.17746049,803.0403,810.293,797.8022,801.8315,743.00366,-0.192138671875,-0.01904296875,1.0008544921875,4.942169189453125,-0.710296630859375,-0.97198486328125,1,1.0,1.0,1.0,1.0,55.00
2022-11-23 20:21:48.829,0.4887848,-0.3155684,-0.055125322,0.7319532,-0.049142584,-0.23339361,-0.43705404,0.35161996,0.4367961,-0.071826234,-0.00407923,0.47383788,0.0636566,-0.06993089,-0.11373933,0.23087169,-0.33071595,-0.6109678,-0.5367592,-0.17208515,825.6044,806.6667,797.3993,819.9634,850.989,-0.192138671875,-0.01904296875,1.0008544921875,4.942169189453125,-0.710296630859375,-0.97198486328125,1,1.0,1.0,1.0,1.0,55.00
2022-11-23 20:21:48.885,0.4887848,-0.3155684,-0.055125322,0.7319532,-0.049142584,-0.23339361,-0.43705404,0.35161996,0.4367961,-0.071826234,-0.00407923,0.47383788,0.0636566,-0.06993089,-0.11373933,0.23087169,-0.33071595,-0.6109678,-0.5367592,-0.17208515,790.54944,803.0403,799.41394,790.9524,733.73627,-0.192138671875,-0.01904296875,1.0008544921875,4.942169189453125,-0.710296630859375,-0.97198486328125,1,1.0,1.0,1.0,1.0,55.00
2022-11-23 20:21:48.886,0.4887848,-0.3155684,-0.055125322,0.7319532,-0.049142584,-0.23339361,-0.43705404,0.35161996,0.4367961,-0.071826234,-0.00407923,0.47383788,0.0636566,-0.06993089,-0.11373933,0.23087169,-0.33071595,-0.6109678,-0.5367592,-0.17208515,764.35895,803.0403,798.60803,772.4176,630.58606,-0.192138671875,-0.01904296875,1.0008544921875,4.942169189453125,-0.710296630859375,-0.97198486328125,1,1.0,1.0,1.0,1.0,55.00
2022-11-23 20:21:48.886,0.4887848,-0.3155684,-0.055125322,0.7319532,-0.049142584,-0.23339361,-0.43705404,0.35161996,0.4367961,-0.071826234,-0.00407923,0.47383788,0.0636566,-0.06993089,-0.11373933,0.23087169,-0.33071595,-0.6109678,-0.5367592,-0.17208515,799.011,805.05493,801.02563,801.4286,741.79486,-0.192138671875,-0.01904296875,1.0008544921875,4.942169189453125,-0.710296630859375,-0.97198486328125,1,1.0,1.0,1.0,1.0,55.00
2022-11-23 20:21:48.886,0.4887848,-0.3155684,-0.055125322,0.7319532,-0.049142584,-0.23339361,-0.43705404,0.35161996,0.4367961,-0.071826234,-0.00407923,0.47383788,0.0636566,-0.06993089,-0.11373933,0.23087169,-0.33071595,-0.6109678,-0.5367592,-0.17208515,832.8571,805.05493,805.4579,818.7546,849.7802,-0.192138671875,-0.01904296875,1.0008544921875,4.942169189453125,-0.710296630859375,-0.97198486328125,1,1.0,1.0,1.0,1.0,55.00
2022-11-23 20:21:48.887,0.4887848,-0.3155684,-0.055125322,0.7319532,-0.049142584,-0.23339361,-0.43705404,0.35161996,0.4367961,-0.071826234,-0.00407923,0.47383788,0.0636566,-0.06993089,-0.11373933,0.23087169,-0.33071595,-0.6109678,-0.5367592,-0.17208515,807.0696,803.44324,809.4872,798.60803,742.6007,-0.192138671875,-0.01904296875,1.0008544921875,4.942169189453125,-0.710296630859375,-0.97198486328125,1,1.0,1.0,1.0,1.0,55.00
2022-11-23 20:21:48.887,0.4887848,-0.3155684,-0.055125322,0.7319532,-0.049142584,-0.23339361,-0.43705404,0.35161996,0.4367961,-0.071826234,-0.00407923,0.47383788,0.0636566,-0.06993089,-0.11373933,0.23087169,-0.33071595,-0.6109678,-0.5367592,-0.17208515,771.6117,804.65204,812.71063,784.5055,773.22345,-0.192138671875,-0.01904296875,1.0008544921875,4.942169189453125,-0.710296630859375,-0.97198486328125,1,1.0,1.0,1.0,1.0,55.00
2022-11-23 20:21:48.887,0.4887848,-0.3155684,-0.055125322,0.7319532,-0.049142584,-0.23339361,-0.43705404,0.35161996,0.4367961,-0.071826234,-0.00407923,0.47383788,0.0636566,-0.06993089,-0.11373933,0.23087169,-0.33071595,-0.6109678,-0.5367592,-0.17208515,788.5348,808.68134,811.0989,801.02563,980.32965,-0.192138671875,-0.01904296875,1.0008544921875,4.942169189453125,-0.710296630859375,-0.97198486328125,1,1.0,1.0,1.0,1.0,55.00
2022-11-23 20:21:48.887,0.4887848,-0.3155684,-0.055125322,0.7319532,-0.049142584,-0.23339361,-0.43705404,0.35161996,0.4367961,-0.071826234,-0.00407923,0.47383788,0.0636566,-0.06993089,-0.11373933,0.23087169,-0.33071595,-0.6109678,-0.5367592,-0.17208515,830.0366,807.47253,808.68134,824.7985,899.34064,-0.192138671875,-0.01904296875,1.0008544921875,4.942169189453125,-0.710296630859375,-0.97198486328125,1,1.0,1.0,1.0,1.0,55.00
2022-11-23 20:21:48.888,0.4887848,-0.3155684,-0.055125322,0.7319532,-0.049142584,-0.23339361,-0.43705404,0.35161996,0.4367961,-0.071826234,-0.00407923,0.47383788,0.0636566,-0.06993089,-0.11373933,0.23087169,-0.33071595,-0.6109678,-0.5367592,-0.17208515,825.6044,805.8608,805.4579,819.9634,732.9304,-0.192138671875,-0.01904296875,1.0008544921875,4.942169189453125,-0.710296630859375,-0.97198486328125,1,1.0,1.0,1.0,1.0,55.00
2022-11-23 20:21:48.888,0.4887848,-0.3155684,-0.055125322,0.7319532,-0.049142584,-0.23339361,-0.43705404,0.35161996,0.4367961,-0.071826234,-0.00407923,0.47383788,0.0636566,-0.06993089,-0.11373933,0.23087169,-0.33071595,-0.6109678,-0.5367592,-0.17208515,791.3553,808.2784,804.65204,796.1905,763.95605,-0.192138671875,-0.01904296875,1.0008544921875,4.942169189453125,-0.710296630859375,-0.97198486328125,1,1.0,1.0,1.0,1.0,55.00
2022-11-23 20:21:48.888,0.4887848,-0.3155684,-0.055125322,0.7319532,-0.049142584,-0.23339361,-0.43705404,0.35161996,0.4367961,-0.071826234,-0.00407923,0.47383788,0.0636566,-0.06993089,-0.11373933,0.23087169,-0.33071595,-0.6109678,-0.5367592,-0.17208515,786.1172,809.0842,808.2784,794.9817,809.4872,-0.192138671875,-0.01904296875,1.0008544921875,4.942169189453125,-0.710296630859375,-0.97198486328125,1,1.0,1.0,1.0,1.0,55.00
2022-11-23 20:21:48.888,0.4887848,-0.3155684,-0.055125322,0.7319532,-0.049142584,-0.23339361,-0.43705404,0.35161996,0.4367961,-0.071826234,-0.00407923,0.47383788,0.0636566,-0.06993089,-0.11373933,0.23087169,-0.33071595,-0.6109678,-0.5367592,-0.17208515,824.7985,809.0842,810.696,818.3516,788.5348,-0.192138671875,-0.01904296875,1.0008544921875,4.942169189453125,-0.710296630859375,-0.97198486328125,1,1.0,1.0,1.0,1.0,55.00
2022-11-23 20:21:48.911,0.4887848,-0.3155684,-0.055125322,0.7319532,-0.049142584,-0.23339361,-0.43705404,0.35161996,0.4367961,-0.071826234,-0.00407923,0.47383788,0.0636566,-0.06993089,-0.11373933,0.23087169,-0.33071595,-0.6109678,-0.5367592,-0.17208515,838.9011,812.3077,807.47253,834.87177,857.03296,-0.184814453125,-0.0107421875,1.0054931640625,5.689849853515625,-0.0897216796875,-1.3458251953125,1,1.0,1.0,1.0,1.0,55.00
2022-11-23 20:21:48.912,0.4887848,-0.3155684,-0.055125322,0.7319532,-0.049142584,-0.23339361,-0.43705404,0.35161996,0.4367961,-0.071826234,-0.00407923,0.47383788,0.0636566,-0.06993089,-0.11373933,0.23087169,-0.33071595,-0.6109678,-0.5367592,-0.17208515,796.1905,808.2784,802.23444,804.2491,705.12823,-0.184814453125,-0.0107421875,1.0054931640625,5.689849853515625,-0.0897216796875,-1.3458251953125,1,1.0,1.0,1.0,1.0,55.00
2022-11-23 20:21:48.912,0.4887848,-0.3155684,-0.055125322,0.7319532,-0.049142584,-0.23339361,-0.43705404,0.35161996,0.4367961,-0.071826234,-0.00407923,0.47383788,0.0636566,-0.06993089,-0.11373933,0.23087169,-0.33071595,-0.6109678,-0.5367592,-0.17208515,774.83514,805.05493,802.23444,786.9231,614.0659,-0.184814453125,-0.0107421875,1.0054931640625,5.689849853515625,-0.0897216796875,-1.3458251953125,1,1.0,1.0,1.0,1.0,55.00
2022-11-23 20:21:48.912,0.4887848,-0.3155684,-0.055125322,0.7319532,-0.049142584,-0.23339361,-0.43705404,0.35161996,0.4367961,-0.071826234,-0.00407923,0.47383788,0.0636566,-0.06993089,-0.11373933,0.23087169,-0.33071595,-0.6109678,-0.5367592,-0.17208515,811.50183,807.8755,803.8461,817.1429,768.3883,-0.184814453125,-0.0107421875,1.0054931640625,5.689849853515625,-0.0897216796875,-1.3458251953125,1,1.0,1.0,1.0,1.0,55.00
2022-11-23 20:21:48.912,0.4887848,-0.3155684,-0.055125322,0.7319532,-0.049142584,-0.23339361,-0.43705404,0.35161996,0.4367961,-0.071826234,-0.00407923,0.47383788,0.0636566,-0.06993089,-0.11373933,0.23087169,-0.33071595,-0.6109678,-0.5367592,-0.17208515,839.707,808.68134,809.4872,832.8571,910.6227,-0.184814453125,-0.0107421875,1.0054931640625,5.689849853515625,-0.0897216796875,-1.3458251953125,1,1.0,1.0,1.0,1.0,55.00
2022-11-23 20:21:48.913,0.4887848,-0.3155684,-0.055125322,0.7319532,-0.049142584,-0.23339361,-0.43705404,0.35161996,0.4367961,-0.071826234,-0.00407923,0.47383788,0.0636566,-0.06993089,-0.11373933,0.23087169,-0.33071595,-0.6109678,-0.5367592,-0.17208515,807.8755,807.8755,808.68134,815.9341,919.89014,-0.184814453125,-0.0107421875,1.0054931640625,5.689849853515625,-0.0897216796875,-1.3458251953125,1,1.0,1.0,1.0,1.0,55.00
2022-11-23 20:21:48.913,0.4887848,-0.3155684,-0.055125322,0.7319532,-0.049142584,-0.23339361,-0.43705404,0.35161996,0.4367961,-0.071826234,-0.00407923,0.47383788,0.0636566,-0.06993089,-0.11373933,0.23087169,-0.33071595,-0.6109678,-0.5367592,-0.17208515,775.2381,807.8755,806.6667,797.3993,786.1172,-0.184814453125,-0.0107421875,1.0054931640625,5.689849853515625,-0.0897216796875,-1.3458251953125,1,1.0,1.0,1.0,1.0,55.00
2022-11-23 20:21:48.913,0.4887848,-0.3155684,-0.055125322,0.7319532,-0.049142584,-0.23339361,-0.43705404,0.35161996,0.4367961,-0.071826234,-0.00407923,0.47383788,0.0636566,-0.06993089,-0.11373933,0.23087169,-0.33071595,-0.6109678,-0.5367592,-0.17208515,803.44324,807.0696,804.65204,811.0989,752.674,-0.184814453125,-0.0107421875,1.0054931640625,5.689849853515625,-0.0897216796875,-1.3458251953125,1,1.0,1.0,1.0,1.0,55.00
2022-11-23 20:21:48.913,0.4887848,-0.3155684,-0.055125322,0.7319532,-0.049142584,-0.23339361,-0.43705404,0.35161996,0.4367961,-0.071826234,-0.00407923,0.47383788,0.0636566,-0.06993089,-0.11373933,0.23087169,-0.33071595,-0.6109678,-0.5367592,-0.17208515,836.8865,801.4286,803.0403,834.87177,840.9158,-0.184814453125,-0.0107421875,1.0054931640625,5.689849853515625,-0.0897216796875,-1.3458251953125,1,1.0,1.0,1.0,1.0,55.00
2022-11-23 20:21:48.914,0.4887848,-0.3155684,-0.055125322,0.7319532,-0.049142584,-0.23339361,-0.43705404,0.35161996,0.4367961,-0.071826234,-0.00407923,0.47383788,0.0636566,-0.06993089,-0.11373933,0.23087169,-0.33071595,-0.6109678,-0.5367592,-0.17208515,813.91943,801.02563,811.50183,829.2308,1023.44324,-0.184814453125,-0.0107421875,1.0054931640625,5.689849853515625,-0.0897216796875,-1.3458251953125,1,1.0,1.0,1.0,1.0,55.00
2022-11-23 20:21:48.914,0.4887848,-0.3155684,-0.055125322,0.7319532,-0.049142584,-0.23339361,-0.43705404,0.35161996,0.4367961,-0.071826234,-0.00407923,0.47383788,0.0636566,-0.06993089,-0.11373933,0.23087169,-0.33071595,-0.6109678,-0.5367592,-0.17208515,776.8498,808.2784,813.1135,794.57874,888.46155,-0.184814453125,-0.0107421875,1.0054931640625,5.689849853515625,-0.0897216796875,-1.3458251953125,1,1.0,1.0,1.0,1.0,55.00
2022-11-23 20:21:48.914,0.4887848,-0.3155684,-0.055125322,0.7319532,-0.049142584,-0.23339361,-0.43705404,0.35161996,0.4367961,-0.071826234,-0.00407923,0.47383788,0.0636566,-0.06993089,-0.11373933,0.23087169,-0.33071595,-0.6109678,-0.5367592,-0.17208515,786.9231,809.0842,811.0989,795.78754,596.7399,-0.184814453125,-0.0107421875,1.0054931640625,5.689849853515625,-0.0897216796875,-1.3458251953125,1,1.0,1.0,1.0,1.0,55.00
2022-11-23 20:21:48.958,0.4887848,-0.3155684,-0.055125322,0.7319532,-0.049142584,-0.23339361,-0.43705404,0.35161996,0.4367961,-0.071826234,-0.00407923,0.47383788,0.0636566,-0.06993089,-0.11373933,0.23087169,-0.33071595,-0.6109678,-0.5367592,-0.17208515,823.5897,807.47253,809.89014,834.87177,782.8938,-0.2066650390625,-0.0048828125,0.9971923828125,5.674896240234375,1.256103515625,1.45050048828125,1,1.0,1.0,1.0,1.0,55.00
2022-11-23 20:21:48.958,0.46706313,-0.32813466,-0.07929452,0.70687795,-0.040778145,-0.26223776,-0.45461938,0.35763988,0.46621218,-0.03509469,-0.0022076252,0.4788378,0.064859524,-0.06574854,-0.12256805,0.24706039,-0.32200226,-0.6090913,-0.5373897,-0.1737404,828.022,809.89014,810.696,832.4542,877.1795,-0.2066650390625,-0.0048828125,0.9971923828125,5.674896240234375,1.256103515625,1.45050048828125,1,1.0,1.0,1.0,1.0,55.00
2022-11-23 20:21:48.960,0.46706313,-0.32813466,-0.07929452,0.70687795,-0.040778145,-0.26223776,-0.45461938,0.35763988,0.46621218,-0.03509469,-0.0022076252,0.4788378,0.064859524,-0.06574854,-0.12256805,0.24706039,-0.32200226,-0.6090913,-0.5373897,-0.1737404,792.1612,805.8608,811.50183,795.78754,670.4762,-0.2066650390625,-0.0048828125,0.9971923828125,5.674896240234375,1.256103515625,1.45050048828125,1,1.0,1.0,1.0,1.0,55.00
2022-11-23 20:21:48.960,0.46706313,-0.32813466,-0.07929452,0.70687795,-0.040778145,-0.26223776,-0.45461938,0.35763988,0.46621218,-0.03509469,-0.0022076252,0.4788378,0.064859524,-0.06574854,-0.12256805,0.24706039,-0.32200226,-0.6090913,-0.5373897,-0.1737404,780.4762,805.4579,811.9048,792.5641,571.3553,-0.2066650390625,-0.0048828125,0.9971923828125,5.674896240234375,1.256103515625,1.45050048828125,1,1.0,1.0,1.0,1.0,55.00
2022-11-23 20:21:48.960,0.46706313,-0.32813466,-0.07929452,0.70687795,-0.040778145,-0.26223776,-0.45461938,0.35763988,0.46621218,-0.03509469,-0.0022076252,0.4788378,0.064859524,-0.06574854,-0.12256805,0.24706039,-0.32200226,-0.6090913,-0.5373897,-0.1737404,813.1135,805.8608,810.696,820.3663,803.44324,-0.2066650390625,-0.0048828125,0.9971923828125,5.674896240234375,1.256103515625,1.45050048828125,1,1.0,1.0,1.0,1.0,55.00
2022-11-23 20:21:48.960,0.46706313,-0.32813466,-0.07929452,0.70687795,-0.040778145,-0.26223776,-0.45461938,0.35763988,0.46621218,-0.03509469,-0.0022076252,0.4788378,0.064859524,-0.06574854,-0.12256805,0.24706039,-0.32200226,-0.6090913,-0.5373897,-0.1737404,830.0366,805.4579,807.47253,821.1722,984.35895,-0.2066650390625,-0.0048828125,0.9971923828125,5.674896240234375,1.256103515625,1.45050048828125,1,1.0,1.0,1.0,1.0,55.00
2022-11-23 20:21:48.961,0.46706313,-0.32813466,-0.07929452,0.70687795,-0.040778145,-0.26223776,-0.45461938,0.35763988,0.46621218,-0.03509469,-0.0022076252,0.4788378,0.064859524,-0.06574854,-0.12256805,0.24706039,-0.32200226,-0.6090913,-0.5373897,-0.1737404,803.44324,806.6667,810.293,793.7729,806.26373,-0.2066650390625,-0.0048828125,0.9971923828125,5.674896240234375,1.256103515625,1.45050048828125,1,1.0,1.0,1.0,1.0,55.00
2022-11-23 20:21:48.961,0.46706313,-0.32813466,-0.07929452,0.70687795,-0.040778145,-0.26223776,-0.45461938,0.35763988,0.46621218,-0.03509469,-0.0022076252,0.4788378,0.064859524,-0.06574854,-0.12256805,0.24706039,-0.32200226,-0.6090913,-0.5373897,-0.1737404,784.5055,810.293,813.91943,788.93774,602.7839,-0.2066650390625,-0.0048828125,0.9971923828125,5.674896240234375,1.256103515625,1.45050048828125,1,1.0,1.0,1.0,1.0,55.00
2022-11-23 20:21:48.961,0.46706313,-0.32813466,-0.07929452,0.70687795,-0.040778145,-0.26223776,-0.45461938,0.35763988,0.46621218,-0.03509469,-0.0022076252,0.4788378,0.064859524,-0.06574854,-0.12256805,0.24706039,-0.32200226,-0.6090913,-0.5373897,-0.1737404,817.5458,805.8608,807.8755,815.9341,807.8755,-0.2066650390625,-0.0048828125,0.9971923828125,5.674896240234375,1.256103515625,1.45050048828125,1,1.0,1.0,1.0,1.0,55.00
2022-11-23 20:21:48.961,0.46706313,-0.32813466,-0.07929452,0.70687795,-0.040778145,-0.26223776,-0.45461938,0.35763988,0.46621218,-0.03509469,-0.0022076252,0.4788378,0.064859524,-0.06574854,-0.12256805,0.24706039,-0.32200226,-0.6090913,-0.5373897,-0.1737404,835.2747,797.8022,804.2491,831.6484,1054.0659,-0.2066650390625,-0.0048828125,0.9971923828125,5.674896240234375,1.256103515625,1.45050048828125,1,1.0,1.0,1.0,1.0,55.00
2022-11-23 20:21:48.962,0.46706313,-0.32813466,-0.07929452,0.70687795,-0.040778145,-0.26223776,-0.45461938,0.35763988,0.46621218,-0.03509469,-0.0022076252,0.4788378,0.064859524,-0.06574854,-0.12256805,0.24706039,-0.32200226,-0.6090913,-0.5373897,-0.1737404,806.26373,796.99634,809.89014,807.0696,825.6044,-0.2066650390625,-0.0048828125,0.9971923828125,5.674896240234375,1.256103515625,1.45050048828125,1,1.0,1.0,1.0,1.0,55.00
2022-11-23 20:21:48.962,0.46706313,-0.32813466,-0.07929452,0.70687795,-0.040778145,-0.26223776,-0.45461938,0.35763988,0.46621218,-0.03509469,-0.0022076252,0.4788378,0.064859524,-0.06574854,-0.12256805,0.24706039,-0.32200226,-0.6090913,-0.5373897,-0.1737404,782.49084,798.60803,805.8608,783.2967,636.63007,-0.2066650390625,-0.0048828125,0.9971923828125,5.674896240234375,1.256103515625,1.45050048828125,1,1.0,1.0,1.0,1.0,55.00
2022-11-23 20:21:49.017,0.46706313,-0.32813466,-0.07929452,0.70687795,-0.040778145,-0.26223776,-0.45461938,0.35763988,0.46621218,-0.03509469,-0.0022076252,0.4788378,0.064859524,-0.06574854,-0.12256805,0.24706039,-0.32200226,-0.6090913,-0.5373897,-0.1737404,804.65204,796.1905,801.8315,803.8461,738.97437,-0.208740234375,-0.00341796875,0.99249267578125,4.964599609375,-0.441131591796875,1.368255615234375,1,1.0,1.0,1.0,1.0,55.00
2022-11-23 20:21:49.018,0.46706313,-0.32813466,-0.07929452,0.70687795,-0.040778145,-0.26223776,-0.45461938,0.35763988,0.46621218,-0.03509469,-0.0022076252,0.4788378,0.064859524,-0.06574854,-0.12256805,0.24706039,-0.32200226,-0.6090913,-0.5373897,-0.1737404,835.6777,796.1905,803.8461,834.4689,864.2857,-0.208740234375,-0.00341796875,0.99249267578125,4.964599609375,-0.441131591796875,1.368255615234375,1,1.0,1.0,1.0,1.0,55.00
2022-11-23 20:21:49.018,0.46706313,-0.32813466,-0.07929452,0.70687795,-0.040778145,-0.26223776,-0.45461938,0.35763988,0.46621218,-0.03509469,-0.0022076252,0.4788378,0.064859524,-0.06574854,-0.12256805,0.24706039,-0.32200226,-0.6090913,-0.5373897,-0.1737404,818.7546,801.02563,806.26373,821.1722,805.8608,-0.208740234375,-0.00341796875,0.99249267578125,4.964599609375,-0.441131591796875,1.368255615234375,1,1.0,1.0,1.0,1.0,55.00
2022-11-23 20:21:49.018,0.46706313,-0.32813466,-0.07929452,0.70687795,-0.040778145,-0.26223776,-0.45461938,0.35763988,0.46621218,-0.03509469,-0.0022076252,0.4788378,0.064859524,-0.06574854,-0.12256805,0.24706039,-0.32200226,-0.6090913,-0.5373897,-0.1737404,776.04395,799.011,807.47253,790.9524,693.0403,-0.208740234375,-0.00341796875,0.99249267578125,4.964599609375,-0.441131591796875,1.368255615234375,1,1.0,1.0,1.0,1.0,55.00
2022-11-23 20:21:49.019,0.46706313,-0.32813466,-0.07929452,0.70687795,-0.040778145,-0.26223776,-0.45461938,0.35763988,0.46621218,-0.03509469,-0.0022076252,0.4788378,0.064859524,-0.06574854,-0.12256805,0.24706039,-0.32200226,-0.6090913,-0.5373897,-0.1737404,776.4469,797.3993,806.26373,796.1905,707.1429,-0.208740234375,-0.00341796875,0.99249267578125,4.964599609375,-0.441131591796875,1.368255615234375,1,1.0,1.0,1.0,1.0,55.00
2022-11-23 20:21:49.019,0.46706313,-0.32813466,-0.07929452,0.70687795,-0.040778145,-0.26223776,-0.45461938,0.35763988,0.46621218,-0.03509469,-0.0022076252,0.4788378,0.064859524,-0.06574854,-0.12256805,0.24706039,-0.32200226,-0.6090913,-0.5373897,-0.1737404,818.3516,798.60803,805.4579,819.5604,993.6264,-0.208740234375,-0.00341796875,0.99249267578125,4.964599609375,-0.441131591796875,1.368255615234375,1,1.0,1.0,1.0,1.0,55.00
2022-11-23 20:21:49.019,0.46706313,-0.32813466,-0.07929452,0.70687795,-0.040778145,-0.26223776,-0.45461938,0.35763988,0.46621218,-0.03509469,-0.0022076252,0.4788378,0.064859524,-0.06574854,-0.12256805,0.24706039,-0.32200226,-0.6090913,-0.5373897,-0.1737404,830.0366,800.2198,806.26373,817.1429,1046.0073,-0.208740234375,-0.00341796875,0.99249267578125,4.964599609375,-0.441131591796875,1.368255615234375,1,1.0,1.0,1.0,1.0,55.00
2022-11-23 20:21:49.019,0.46706313,-0.32813466,-0.07929452,0.70687795,-0.040778145,-0.26223776,-0.45461938,0.35763988,0.46621218,-0.03509469,-0.0022076252,0.4788378,0.064859524,-0.06574854,-0.12256805,0.24706039,-0.32200226,-0.6090913,-0.5373897,-0.1737404,797.8022,801.8315,809.4872,796.5934,708.7546,-0.208740234375,-0.00341796875,0.99249267578125,4.964599609375,-0.441131591796875,1.368255615234375,1,1.0,1.0,1.0,1.0,55.00
2022-11-23 20:21:49.020,0.46706313,-0.32813466,-0.07929452,0.70687795,-0.040778145,-0.26223776,-0.45461938,0.35763988,0.46621218,-0.03509469,-0.0022076252,0.4788378,0.064859524,-0.06574854,-0.12256805,0.24706039,-0.32200226,-0.6090913,-0.5373897,-0.1737404,780.87915,804.65204,809.0842,794.57874,796.5934,-0.208740234375,-0.00341796875,0.99249267578125,4.964599609375,-0.441131591796875,1.368255615234375,1,1.0,1.0,1.0,1.0,55.00
2022-11-23 20:21:49.020,0.46706313,-0.32813466,-0.07929452,0.70687795,-0.040778145,-0.26223776,-0.45461938,0.35763988,0.46621218,-0.03509469,-0.0022076252,0.4788378,0.064859524,-0.06574854,-0.12256805,0.24706039,-0.32200226,-0.6090913,-0.5373897,-0.1737404,816.7399,804.2491,806.26373,823.1868,952.9304,-0.208740234375,-0.00341796875,0.99249267578125,4.964599609375,-0.441131591796875,1.368255615234375,1,1.0,1.0,1.0,1.0,55.00
2022-11-23 20:21:49.020,0.46706313,-0.32813466,-0.07929452,0.70687795,-0.040778145,-0.26223776,-0.45461938,0.35763988,0.46621218,-0.03509469,-0.0022076252,0.4788378,0.064859524,-0.06574854,-0.12256805,0.24706039,-0.32200226,-0.6090913,-0.5373897,-0.1737404,844.94507,807.8755,803.0403,829.2308,859.0476,-0.208740234375,-0.00341796875,0.99249267578125,4.964599609375,-0.441131591796875,1.368255615234375,1,1.0,1.0,1.0,1.0,55.00
2022-11-23 20:21:49.020,0.46706313,-0.32813466,-0.07929452,0.70687795,-0.040778145,-0.26223776,-0.45461938,0.35763988,0.46621218,-0.03509469,-0.0022076252,0.4788378,0.064859524,-0.06574854,-0.12256805,0.24706039,-0.32200226,-0.6090913,-0.5373897,-0.1737404,811.0989,808.2784,801.4286,796.1905,796.5934,-0.208740234375,-0.00341796875,0.99249267578125,4.964599609375,-0.441131591796875,1.368255615234375,1,1.0,1.0,1.0,1.0,55.00
2022-11-23 20:21:49.069,0.46706313,-0.32813466,-0.07929452,0.70687795,-0.040778145,-0.26223776,-0.45461938,0.35763988,0.46621218,-0.03509469,-0.0022076252,0.4788378,0.064859524,-0.06574854,-0.12256805,0.24706039,-0.32200226,-0.6090913,-0.5373897,-0.1737404,776.8498,802.23444,801.02563,787.72894,654.7619,-0.18768310546875,-0.00140380859375,1.00537109375,3.177642822265625,-7.01324462890625,0.9271240234375,1,1.0,1.0,1.0,1.0,55.00
2022-11-23 20:21:49.069,0.46706313,-0.32813466,-0.07929452,0.70687795,-0.040778145,-0.26223776,-0.45461938,0.35763988,0.46621218,-0.03509469,-0.0022076252,0.4788378,0.064859524,-0.06574854,-0.12256805,0.24706039,-0.32200226,-0.6090913,-0.5373897,-0.1737404,805.05493,802.23444,803.8461,813.91943,755.89746,-0.18768310546875,-0.00140380859375,1.00537109375,3.177642822265625,-7.01324462890625,0.9271240234375,1,1.0,1.0,1.0,1.0,55.00
2022-11-23 20:21:49.070,0.46706313,-0.32813466,-0.07929452,0.70687795,-0.040778145,-0.26223776,-0.45461938,0.35763988,0.46621218,-0.03509469,-0.0022076252,0.4788378,0.064859524,-0.06574854,-0.12256805,0.24706039,-0.32200226,-0.6090913,-0.5373897,-0.1737404,835.6777,805.8608,808.2784,830.0366,833.2601,-0.18768310546875,-0.00140380859375,1.00537109375,3.177642822265625,-7.01324462890625,0.9271240234375,1,1.0,1.0,1.0,1.0,55.00
2022-11-23 20:21:49.070,0.45673454,-0.3564337,-0.0885615,0.6943436,-0.02176758,-0.3013897,-0.47953403,0.35625592,0.48978782,0.013671426,-0.0068209125,0.48702073,0.065582946,-0.06281545,-0.12360664,0.2593149,-0.30299222,-0.6158812,-0.5455967,-0.1799188,813.1135,805.8608,807.0696,817.1429,804.2491,-0.18768310546875,-0.00140380859375,1.00537109375,3.177642822265625,-7.01324462890625,0.9271240234375,1,1.0,1.0,1.0,1.0,55.00
2022-11-23 20:21:49.071,0.45673454,-0.3564337,-0.0885615,0.6943436,-0.02176758,-0.3013897,-0.47953403,0.35625592,0.48978782,0.013671426,-0.0068209125,0.48702073,0.065582946,-0.06281545,-0.12360664,0.2593149,-0.30299222,-0.6158812,-0.5455967,-0.1799188,777.25275,800.2198,806.26373,788.1319,785.31134,-0.18768310546875,-0.00140380859375,1.00537109375,3.177642822265625,-7.01324462890625,0.9271240234375,1,1.0,1.0,1.0,1.0,55.00
2022-11-23 20:21:49.071,0.45673454,-0.3564337,-0.0885615,0.6943436,-0.02176758,-0.3013897,-0.47953403,0.35625592,0.48978782,0.013671426,-0.0068209125,0.48702073,0.065582946,-0.06281545,-0.12360664,0.2593149,-0.30299222,-0.6158812,-0.5455967,-0.1799188,794.57874,801.8315,809.89014,797.8022,717.2161,-0.18768310546875,-0.00140380859375,1.00537109375,3.177642822265625,-7.01324462890625,0.9271240234375,1,1.0,1.0,1.0,1.0,55.00
2022-11-23 20:21:49.072,0.45673454,-0.3564337,-0.0885615,0.6943436,-0.02176758,-0.3013897,-0.47953403,0.35625592,0.48978782,0.013671426,-0.0068209125,0.48702073,0.065582946,-0.06281545,-0.12360664,0.2593149,-0.30299222,-0.6158812,-0.5455967,-0.1799188,830.84247,804.65204,811.9048,828.4249,920.696,-0.18768310546875,-0.00140380859375,1.00537109375,3.177642822265625,-7.01324462890625,0.9271240234375,1,1.0,1.0,1.0,1.0,55.00
2022-11-23 20:21:49.072,0.45673454,-0.3564337,-0.0885615,0.6943436,-0.02176758,-0.3013897,-0.47953403,0.35625592,0.48978782,0.013671426,-0.0068209125,0.48702073,0.065582946,-0.06281545,-0.12360664,0.2593149,-0.30299222,-0.6158812,-0.5455967,-0.1799188,826.0073,801.8315,804.65204,831.6484,1024.652,-0.18768310546875,-0.00140380859375,1.00537109375,3.177642822265625,-7.01324462890625,0.9271240234375,1,1.0,1.0,1.0,1.0,55.00
2022-11-23 20:21:49.072,0.45673454,-0.3564337,-0.0885615,0.6943436,-0.02176758,-0.3013897,-0.47953403,0.35625592,0.48978782,0.013671426,-0.0068209125,0.48702073,0.065582946,-0.06281545,-0.12360664,0.2593149,-0.30299222,-0.6158812,-0.5455967,-0.1799188,790.14655,803.8461,802.23444,803.44324,876.3736,-0.18768310546875,-0.00140380859375,1.00537109375,3.177642822265625,-7.01324462890625,0.9271240234375,1,1.0,1.0,1.0,1.0,55.00
2022-11-23 20:21:49.072,0.45673454,-0.3564337,-0.0885615,0.6943436,-0.02176758,-0.3013897,-0.47953403,0.35625592,0.48978782,0.013671426,-0.0068209125,0.48702073,0.065582946,-0.06281545,-0.12360664,0.2593149,-0.30299222,-0.6158812,-0.5455967,-0.1799188,772.8205,808.2784,813.1135,780.87915,674.10254,-0.18768310546875,-0.00140380859375,1.00537109375,3.177642822265625,-7.01324462890625,0.9271240234375,1,1.0,1.0,1.0,1.0,55.00
2022-11-23 20:21:49.073,0.45673454,-0.3564337,-0.0885615,0.6943436,-0.02176758,-0.3013897,-0.47953403,0.35625592,0.48978782,0.013671426,-0.0068209125,0.48702073,0.065582946,-0.06281545,-0.12360664,0.2593149,-0.30299222,-0.6158812,-0.5455967,-0.1799188,803.44324,805.4579,813.5165,799.41394,749.85345,-0.18768310546875,-0.00140380859375,1.00537109375,3.177642822265625,-7.01324462890625,0.9271240234375,1,1.0,1.0,1.0,1.0,55.00
2022-11-23 20:21:49.073,0.45673454,-0.3564337,-0.0885615,0.6943436,-0.02176758,-0.3013897,-0.47953403,0.35625592,0.48978782,0.013671426,-0.0068209125,0.48702073,0.065582946,-0.06281545,-0.12360664,0.2593149,-0.30299222,-0.6158812,-0.5455967,-0.1799188,827.619,805.4579,805.8608,807.47253,886.8498,-0.18768310546875,-0.00140380859375,1.00537109375,3.177642822265625,-7.01324462890625,0.9271240234375,1,1.0,1.0,1.0,1.0,55.00
2022-11-23 20:21:49.103,0.45673454,-0.3564337,-0.0885615,0.6943436,-0.02176758,-0.3013897,-0.47953403,0.35625592,0.48978782,0.013671426,-0.0068209125,0.48702073,0.065582946,-0.06281545,-0.12360664,0.2593149,-0.30299222,-0.6158812,-0.5455967,-0.1799188,794.17584,809.0842,803.44324,782.8938,770.80585,-0.18768310546875,-0.00140380859375,1.00537109375,3.177642822265625,-7.01324462890625,0.9271240234375,1,1.0,1.0,1.0,1.0,55.00
2022-11-23 20:21:49.104,0.45673454,-0.3564337,-0.0885615,0.6943436,-0.02176758,-0.3013897,-0.47953403,0.35625592,0.48978782,0.013671426,-0.0068209125,0.48702073,0.065582946,-0.06281545,-0.12360664,0.2593149,-0.30299222,-0.6158812,-0.5455967,-0.1799188,771.2088,808.2784,804.65204,775.64105,708.3516,-0.18768310546875,-0.00140380859375,1.00537109375,3.177642822265625,-7.01324462890625,0.9271240234375,1,1.0,1.0,1.0,1.0,55.00
2022-11-23 20:21:49.104,0.45673454,-0.3564337,-0.0885615,0.6943436,-0.02176758,-0.3013897,-0.47953403,0.35625592,0.48978782,0.013671426,-0.0068209125,0.48702073,0.065582946,-0.06281545,-0.12360664,0.2593149,-0.30299222,-0.6158812,-0.5455967,-0.1799188,797.8022,803.0403,804.65204,794.57874,862.27106,-0.18768310546875,-0.00140380859375,1.00537109375,3.177642822265625,-7.01324462890625,0.9271240234375,1,1.0,1.0,1.0,1.0,55.00
2022-11-23 20:21:49.105,0.45673454,-0.3564337,-0.0885615,0.6943436,-0.02176758,-0.3013897,-0.47953403,0.35625592,0.48978782,0.013671426,-0.0068209125,0.48702073,0.065582946,-0.06281545,-0.12360664,0.2593149,-0.30299222,-0.6158812,-0.5455967,-0.1799188,814.7253,803.0403,802.23444,807.8755,965.0183,-0.18768310546875,-0.00140380859375,1.00537109375,3.177642822265625,-7.01324462890625,0.9271240234375,1,1.0,1.0,1.0,1.0,55.00
2022-11-23 20:21:49.105,0.45673454,-0.3564337,-0.0885615,0.6943436,-0.02176758,-0.3013897,-0.47953403,0.35625592,0.48978782,0.013671426,-0.0068209125,0.48702073,0.065582946,-0.06281545,-0.12360664,0.2593149,-0.30299222,-0.6158812,-0.5455967,-0.1799188,788.93774,805.8608,801.8315,797.8022,896.52014,-0.18768310546875,-0.00140380859375,1.00537109375,3.177642822265625,-7.01324462890625,0.9271240234375,1,1.0,1.0,1.0,1.0,55.00
2022-11-23 20:21:49.105,0.45673454,-0.3564337,-0.0885615,0.6943436,-0.02176758,-0.3013897,-0.47953403,0.35625592,0.48978782,0.013671426,-0.0068209125,0.48702073,0.065582946,-0.06281545,-0.12360664,0.2593149,-0.30299222,-0.6158812,-0.5455967,-0.1799188,765.9707,804.65204,798.20514,781.28204,801.8315,-0.18768310546875,-0.00140380859375,1.00537109375,3.177642822265625,-7.01324462890625,0.9271240234375,1,1.0,1.0,1.0,1.0,55.00
2022-11-23 20:21:49.106,0.45673454,-0.3564337,-0.0885615,0.6943436,-0.02176758,-0.3013897,-0.47953403,0.35625592,0.48978782,0.013671426,-0.0068209125,0.48702073,0.065582946,-0.06281545,-0.12360664,0.2593149,-0.30299222,-0.6158812,-0.5455967,-0.1799188,787.72894,805.05493,796.99634,789.7436,850.989,-0.18768310546875,-0.00140380859375,1.00537109375,3.177642822265625,-7.01324462890625,0.9271240234375,1,1.0,1.0,1.0,1.0,55.00
2022-11-23 20:21:49.106,0.45673454,-0.3564337,-0.0885615,0.6943436,-0.02176758,-0.3013897,-0.47953403,0.35625592,0.48978782,0.013671426,-0.0068209125,0.48702073,0.065582946,-0.06281545,-0.12360664,0.2593149,-0.30299222,-0.6158812,-0.5455967,-0.1799188,809.89014,800.2198,798.20514,809.89014,1230.1465,-0.18768310546875,-0.00140380859375,1.00537109375,3.177642822265625,-7.01324462890625,0.9271240234375,1,1.0,1.0,1.0,1.0,55.00
2022-11-23 20:21:49.106,0.45673454,-0.3564337,-0.0885615,0.6943436,-0.02176758,-0.3013897,-0.47953403,0.35625592,0.48978782,0.013671426,-0.0068209125,0.48702073,0.065582946,-0.06281545,-0.12360664,0.2593149,-0.30299222,-0.6158812,-0.5455967,-0.1799188,786.9231,798.20514,798.60803,797.3993,1203.1501,-0.18768310546875,-0.00140380859375,1.00537109375,3.177642822265625,-7.01324462890625,0.9271240234375,1,1.0,1.0,1.0,1.0,55.00
2022-11-23 20:21:49.106,0.45673454,-0.3564337,-0.0885615,0.6943436,-0.02176758,-0.3013897,-0.47953403,0.35625592,0.48978782,0.013671426,-0.0068209125,0.48702073,0.065582946,-0.06281545,-0.12360664,0.2593149,-0.30299222,-0.6158812,-0.5455967,-0.1799188,769.19415,796.99634,799.011,774.83514,727.28937,-0.18768310546875,-0.00140380859375,1.00537109375,3.177642822265625,-7.01324462890625,0.9271240234375,1,1.0,1.0,1.0,1.0,55.00
2022-11-23 20:21:49.107,0.45673454,-0.3564337,-0.0885615,0.6943436,-0.02176758,-0.3013897,-0.47953403,0.35625592,0.48978782,0.013671426,-0.0068209125,0.48702073,0.065582946,-0.06281545,-0.12360664,0.2593149,-0.30299222,-0.6158812,-0.5455967,-0.1799188,778.0586,796.5934,801.8315,785.31134,631.39197,-0.18768310546875,-0.00140380859375,1.00537109375,3.177642822265625,-7.01324462890625,0.9271240234375,1,1.0,1.0,1.0,1.0,55.00
2022-11-23 20:21:49.107,0.45673454,-0.3564337,-0.0885615,0.6943436,-0.02176758,-0.3013897,-0.47953403,0.35625592,0.48978782,0.013671426,-0.0068209125,0.48702073,0.065582946,-0.06281545,-0.12360664,0.2593149,-0.30299222,-0.6158812,-0.5455967,-0.1799188,809.0842,799.81683,807.47253,813.91943,764.35895,-0.18768310546875,-0.00140380859375,1.00537109375,3.177642822265625,-7.01324462890625,0.9271240234375,1,1.0,1.0,1.0,1.0,55.00
2022-11-23 20:21:49.159,0.45673454,-0.3564337,-0.0885615,0.6943436,-0.02176758,-0.3013897,-0.47953403,0.35625592,0.48978782,0.013671426,-0.0068209125,0.48702073,0.065582946,-0.06281545,-0.12360664,0.2593149,-0.30299222,-0.6158812,-0.5455967,-0.1799188,811.0989,801.02563,806.26373,814.3223,788.5348,-0.1900634765625,0.00238037109375,1.006591796875,3.267364501953125,-3.4991455078125,1.86920166015625,1,1.0,1.0,1.0,1.0,55.00
2022-11-23 20:21:49.159,0.45673454,-0.3564337,-0.0885615,0.6943436,-0.02176758,-0.3013897,-0.47953403,0.35625592,0.48978782,0.013671426,-0.0068209125,0.48702073,0.065582946,-0.06281545,-0.12360664,0.2593149,-0.30299222,-0.6158812,-0.5455967,-0.1799188,769.19415,803.8461,801.8315,786.1172,625.34796,-0.1900634765625,0.00238037109375,1.006591796875,3.267364501953125,-3.4991455078125,1.86920166015625,1,1.0,1.0,1.0,1.0,55.00
2022-11-23 20:21:49.159,0.45673454,-0.3564337,-0.0885615,0.6943436,-0.02176758,-0.3013897,-0.47953403,0.35625592,0.48978782,0.013671426,-0.0068209125,0.48702073,0.065582946,-0.06281545,-0.12360664,0.2593149,-0.30299222,-0.6158812,-0.5455967,-0.1799188,767.5824,805.05493,803.0403,785.31134,619.707,-0.1900634765625,0.00238037109375,1.006591796875,3.267364501953125,-3.4991455078125,1.86920166015625,1,1.0,1.0,1.0,1.0,55.00
2022-11-23 20:21:49.160,0.45673454,-0.3564337,-0.0885615,0.6943436,-0.02176758,-0.3013897,-0.47953403,0.35625592,0.48978782,0.013671426,-0.0068209125,0.48702073,0.065582946,-0.06281545,-0.12360664,0.2593149,-0.30299222,-0.6158812,-0.5455967,-0.1799188,807.47253,805.05493,803.44324,813.5165,810.696,-0.1900634765625,0.00238037109375,1.006591796875,3.267364501953125,-3.4991455078125,1.86920166015625,1,1.0,1.0,1.0,1.0,55.00
2022-11-23 20:21:49.160,0.45673454,-0.3564337,-0.0885615,0.6943436,-0.02176758,-0.3013897,-0.47953403,0.35625592,0.48978782,0.013671426,-0.0068209125,0.48702073,0.065582946,-0.06281545,-0.12360664,0.2593149,-0.30299222,-0.6158812,-0.5455967,-0.1799188,819.15753,802.23444,805.4579,819.9634,846.55676,-0.1900634765625,0.00238037109375,1.006591796875,3.267364501953125,-3.4991455078125,1.86920166015625,1,1.0,1.0,1.0,1.0,55.00
2022-11-23 20:21:49.160,0.4746615,-0.40100294,-0.07983068,0.7152229,0.0022210071,-0.3373901,-0.50442326,0.35526845,0.50803924,0.03884527,-0.013920883,0.49662763,0.06596716,-0.060934987,-0.12143513,0.26294953,-0.27997988,-0.6227502,-0.55886644,-0.18997845,786.9231,802.6374,804.2491,790.14655,684.57874,-0.1900634765625,0.00238037109375,1.006591796875,3.267364501953125,-3.4991455078125,1.86920166015625,1,1.0,1.0,1.0,1.0,55.00
2022-11-23 20:21:49.162,0.4746615,-0.40100294,-0.07983068,0.7152229,0.0022210071,-0.3373901,-0.50442326,0.35526845,0.50803924,0.03884527,-0.013920883,0.49662763,0.06596716,-0.060934987,-0.12143513,0.26294953,-0.27997988,-0.6227502,-0.55886644,-0.18997845,772.8205,800.6227,801.8315,776.4469,740.18317,-0.1900634765625,0.00238037109375,1.006591796875,3.267364501953125,-3.4991455078125,1.86920166015625,1,1.0,1.0,1.0,1.0,55.00
2022-11-23 20:21:49.162,0.4746615,-0.40100294,-0.07983068,0.7152229,0.0022210071,-0.3373901,-0.50442326,0.35526845,0.50803924,0.03884527,-0.013920883,0.49662763,0.06596716,-0.060934987,-0.12143513,0.26294953,-0.27997988,-0.6227502,-0.55886644,-0.18997845,803.44324,799.41394,799.011,804.65204,983.95605,-0.1900634765625,0.00238037109375,1.006591796875,3.267364501953125,-3.4991455078125,1.86920166015625,1,1.0,1.0,1.0,1.0,55.00
2022-11-23 20:21:49.162,0.4746615,-0.40100294,-0.07983068,0.7152229,0.0022210071,-0.3373901,-0.50442326,0.35526845,0.50803924,0.03884527,-0.013920883,0.49662763,0.06596716,-0.060934987,-0.12143513,0.26294953,-0.27997988,-0.6227502,-0.55886644,-0.18997845,826.8132,803.0403,799.81683,822.7839,921.50183,-0.1900634765625,0.00238037109375,1.006591796875,3.267364501953125,-3.4991455078125,1.86920166015625,1,1.0,1.0,1.0,1.0,55.00
2022-11-23 20:21:49.162,0.4746615,-0.40100294,-0.07983068,0.7152229,0.0022210071,-0.3373901,-0.50442326,0.35526845,0.50803924,0.03884527,-0.013920883,0.49662763,0.06596716,-0.060934987,-0.12143513,0.26294953,-0.27997988,-0.6227502,-0.55886644,-0.18997845,803.44324,807.0696,804.2491,806.6667,734.1392,-0.1900634765625,0.00238037109375,1.006591796875,3.267364501953125,-3.4991455078125,1.86920166015625,1,1.0,1.0,1.0,1.0,55.00
2022-11-23 20:21:49.163,0.4746615,-0.40100294,-0.07983068,0.7152229,0.0022210071,-0.3373901,-0.50442326,0.35526845,0.50803924,0.03884527,-0.013920883,0.49662763,0.06596716,-0.060934987,-0.12143513,0.26294953,-0.27997988,-0.6227502,-0.55886644,-0.18997845,774.83514,808.2784,801.02563,784.90845,663.22345,-0.1900634765625,0.00238037109375,1.006591796875,3.267364501953125,-3.4991455078125,1.86920166015625,1,1.0,1.0,1.0,1.0,55.00
2022-11-23 20:21:49.163,0.4746615,-0.40100294,-0.07983068,0.7152229,0.0022210071,-0.3373901,-0.50442326,0.35526845,0.50803924,0.03884527,-0.013920883,0.49662763,0.06596716,-0.060934987,-0.12143513,0.26294953,-0.27997988,-0.6227502,-0.55886644,-0.18997845,798.60803,803.44324,803.44324,801.4286,674.5055,-0.1900634765625,0.00238037109375,1.006591796875,3.267364501953125,-3.4991455078125,1.86920166015625,1,1.0,1.0,1.0,1.0,55.00
2022-11-23 20:21:49.208,0.4746615,-0.40100294,-0.07983068,0.7152229,0.0022210071,-0.3373901,-0.50442326,0.35526845,0.50803924,0.03884527,-0.013920883,0.49662763,0.06596716,-0.060934987,-0.12143513,0.26294953,-0.27997988,-0.6227502,-0.55886644,-0.18997845,838.49817,804.65204,806.26373,825.6044,740.18317,-0.203369140625,-0.00909423828125,0.99932861328125,1.4056396484375,-0.0897216796875,-0.01495361328125,1,1.0,1.0,1.0,1.0,55.00
2022-11-23 20:21:49.208,0.4746615,-0.40100294,-0.07983068,0.7152229,0.0022210071,-0.3373901,-0.50442326,0.35526845,0.50803924,0.03884527,-0.013920883,0.49662763,0.06596716,-0.060934987,-0.12143513,0.26294953,-0.27997988,-0.6227502,-0.55886644,-0.18997845,823.9927,807.8755,803.0403,809.0842,785.7143,-0.203369140625,-0.00909423828125,0.99932861328125,1.4056396484375,-0.0897216796875,-0.01495361328125,1,1.0,1.0,1.0,1.0,55.00
2022-11-23 20:21:49.208,0.4746615,-0.40100294,-0.07983068,0.7152229,0.0022210071,-0.3373901,-0.50442326,0.35526845,0.50803924,0.03884527,-0.013920883,0.49662763,0.06596716,-0.060934987,-0.12143513,0.26294953,-0.27997988,-0.6227502,-0.55886644,-0.18997845,786.9231,808.68134,799.41394,786.9231,671.28204,-0.203369140625,-0.00909423828125,0.99932861328125,1.4056396484375,-0.0897216796875,-0.01495361328125,1,1.0,1.0,1.0,1.0,55.00
2022-11-23 20:21:49.209,0.4746615,-0.40100294,-0.07983068,0.7152229,0.0022210071,-0.3373901,-0.50442326,0.35526845,0.50803924,0.03884527,-0.013920883,0.49662763,0.06596716,-0.060934987,-0.12143513,0.26294953,-0.27997988,-0.6227502,-0.55886644,-0.18997845,793.7729,812.3077,801.02563,801.02563,741.79486,-0.203369140625,-0.00909423828125,0.99932861328125,1.4056396484375,-0.0897216796875,-0.01495361328125,1,1.0,1.0,1.0,1.0,55.00
2022-11-23 20:21:49.209,0.4746615,-0.40100294,-0.07983068,0.7152229,0.0022210071,-0.3373901,-0.50442326,0.35526845,0.50803924,0.03884527,-0.013920883,0.49662763,0.06596716,-0.060934987,-0.12143513,0.26294953,-0.27997988,-0.6227502,-0.55886644,-0.18997845,823.5897,809.0842,805.8608,828.022,882.4176,-0.203369140625,-0.00909423828125,0.99932861328125,1.4056396484375,-0.0897216796875,-0.01495361328125,1,1.0,1.0,1.0,1.0,55.00
2022-11-23 20:21:49.209,0.4746615,-0.40100294,-0.07983068,0.7152229,0.0022210071,-0.3373901,-0.50442326,0.35526845,0.50803924,0.03884527,-0.013920883,0.49662763,0.06596716,-0.060934987,-0.12143513,0.26294953,-0.27997988,-0.6227502,-0.55886644,-0.18997845,821.978,807.47253,806.6667,825.6044,829.6337,-0.203369140625,-0.00909423828125,0.99932861328125,1.4056396484375,-0.0897216796875,-0.01495361328125,1,1.0,1.0,1.0,1.0,55.00
2022-11-23 20:21:49.209,0.4746615,-0.40100294,-0.07983068,0.7152229,0.0022210071,-0.3373901,-0.50442326,0.35526845,0.50803924,0.03884527,-0.013920883,0.49662763,0.06596716,-0.060934987,-0.12143513,0.26294953,-0.27997988,-0.6227502,-0.55886644,-0.18997845,793.36993,811.9048,808.68134,797.8022,884.43225,-0.203369140625,-0.00909423828125,0.99932861328125,1.4056396484375,-0.0897216796875,-0.01495361328125,1,1.0,1.0,1.0,1.0,55.00
2022-11-23 20:21:49.210,0.4746615,-0.40100294,-0.07983068,0.7152229,0.0022210071,-0.3373901,-0.50442326,0.35526845,0.50803924,0.03884527,-0.013920883,0.49662763,0.06596716,-0.060934987,-0.12143513,0.26294953,-0.27997988,-0.6227502,-0.55886644,-0.18997845,782.0879,813.1135,808.68134,785.7143,823.9927,-0.203369140625,-0.00909423828125,0.99932861328125,1.4056396484375,-0.0897216796875,-0.01495361328125,1,1.0,1.0,1.0,1.0,55.00
2022-11-23 20:21:49.210,0.4746615,-0.40100294,-0.07983068,0.7152229,0.0022210071,-0.3373901,-0.50442326,0.35526845,0.50803924,0.03884527,-0.013920883,0.49662763,0.06596716,-0.060934987,-0.12143513,0.26294953,-0.27997988,-0.6227502,-0.55886644,-0.18997845,815.5311,814.3223,807.0696,808.68134,736.55676,-0.203369140625,-0.00909423828125,0.99932861328125,1.4056396484375,-0.0897216796875,-0.01495361328125,1,1.0,1.0,1.0,1.0,55.00
2022-11-23 20:21:49.210,0.4746615,-0.40100294,-0.07983068,0.7152229,0.0022210071,-0.3373901,-0.50442326,0.35526845,0.50803924,0.03884527,-0.013920883,0.49662763,0.06596716,-0.060934987,-0.12143513,0.26294953,-0.27997988,-0.6227502,-0.55886644,-0.18997845,836.08057,816.337,805.8608,816.7399,832.0513,-0.203369140625,-0.00909423828125,0.99932861328125,1.4056396484375,-0.0897216796875,-0.01495361328125,1,1.0,1.0,1.0,1.0,55.00
2022-11-23 20:21:49.210,0.4746615,-0.40100294,-0.07983068,0.7152229,0.0022210071,-0.3373901,-0.50442326,0.35526845,0.50803924,0.03884527,-0.013920883,0.49662763,0.06596716,-0.060934987,-0.12143513,0.26294953,-0.27997988,-0.6227502,-0.55886644,-0.18997845,796.1905,813.91943,803.0403,790.9524,782.0879,-0.203369140625,-0.00909423828125,0.99932861328125,1.4056396484375,-0.0897216796875,-0.01495361328125,1,1.0,1.0,1.0,1.0,55.00
2022-11-23 20:21:49.211,0.4746615,-0.40100294,-0.07983068,0.7152229,0.0022210071,-0.3373901,-0.50442326,0.35526845,0.50803924,0.03884527,-0.013920883,0.49662763,0.06596716,-0.060934987,-0.12143513,0.26294953,-0.27997988,-0.6227502,-0.55886644,-0.18997845,769.59705,807.47253,801.02563,784.10254,686.5934,-0.203369140625,-0.00909423828125,0.99932861328125,1.4056396484375,-0.0897216796875,-0.01495361328125,1,1.0,1.0,1.0,1.0,55.00
2022-11-23 20:21:49.258,0.4746615,-0.40100294,-0.07983068,0.7152229,0.0022210071,-0.3373901,-0.50442326,0.35526845,0.50803924,0.03884527,-0.013920883,0.49662763,0.06596716,-0.060934987,-0.12143513,0.26294953,-0.27997988,-0.6227502,-0.55886644,-0.18997845,805.8608,802.23444,799.41394,809.4872,703.5165,-0.2117919921875,-0.02685546875,0.99603271484375,0.7177734375,-0.88226318359375,-3.013153076171875,1,1.0,1.0,1.0,1.0,55.00
2022-11-23 20:21:49.258,0.4746615,-0.40100294,-0.07983068,0.7152229,0.0022210071,-0.3373901,-0.50442326,0.35526845,0.50803924,0.03884527,-0.013920883,0.49662763,0.06596716,-0.060934987,-0.12143513,0.26294953,-0.27997988,-0.6227502,-0.55886644,-0.18997845,855.82416,810.696,799.41394,834.0659,865.4945,-0.2117919921875,-0.02685546875,0.99603271484375,0.7177734375,-0.88226318359375,-3.013153076171875,1,1.0,1.0,1.0,1.0,55.00
2022-11-23 20:21:49.258,0.4746615,-0.40100294,-0.07983068,0.7152229,0.0022210071,-0.3373901,-0.50442326,0.35526845,0.50803924,0.03884527,-0.013920883,0.49662763,0.06596716,-0.060934987,-0.12143513,0.26294953,-0.27997988,-0.6227502,-0.55886644,-0.18997845,834.4689,822.7839,794.17584,803.0403,836.08057,-0.2117919921875,-0.02685546875,0.99603271484375,0.7177734375,-0.88226318359375,-3.013153076171875,1,1.0,1.0,1.0,1.0,55.00
2022-11-23 20:21:49.259,0.4746615,-0.40100294,-0.07983068,0.7152229,0.0022210071,-0.3373901,-0.50442326,0.35526845,0.50803924,0.03884527,-0.013920883,0.49662763,0.06596716,-0.060934987,-0.12143513,0.26294953,-0.27997988,-0.6227502,-0.55886644,-0.18997845,773.6264,819.9634,792.5641,768.3883,616.08057,-0.2117919921875,-0.02685546875,0.99603271484375,0.7177734375,-0.88226318359375,-3.013153076171875,1,1.0,1.0,1.0,1.0,55.00
2022-11-23 20:21:49.259,0.4746615,-0.40100294,-0.07983068,0.7152229,0.0022210071,-0.3373901,-0.50442326,0.35526845,0.50803924,0.03884527,-0.013920883,0.49662763,0.06596716,-0.060934987,-0.12143513,0.26294953,-0.27997988,-0.6227502,-0.55886644,-0.18997845,777.25275,817.5458,794.17584,787.326,643.47986,-0.2117919921875,-0.02685546875,0.99603271484375,0.7177734375,-0.88226318359375,-3.013153076171875,1,1.0,1.0,1.0,1.0,55.00
2022-11-23 20:21:49.259,0.4746615,-0.40100294,-0.07983068,0.7152229,0.0022210071,-0.3373901,-0.50442326,0.35526845,0.50803924,0.03884527,-0.013920883,0.49662763,0.06596716,-0.060934987,-0.12143513,0.26294953,-0.27997988,-0.6227502,-0.55886644,-0.18997845,819.5604,823.9927,789.34064,809.4872,935.2015,-0.2117919921875,-0.02685546875,0.99603271484375,0.7177734375,-0.88226318359375,-3.013153076171875,1,1.0,1.0,1.0,1.0,55.00
2022-11-23 20:21:49.259,0.4746615,-0.40100294,-0.07983068,0.7152229,0.0022210071,-0.3373901,-0.50442326,0.35526845,0.50803924,0.03884527,-0.013920883,0.49662763,0.06596716,-0.060934987,-0.12143513,0.26294953,-0.27997988,-0.6227502,-0.55886644,-0.18997845,810.696,831.6484,787.326,785.7143,1021.8315,-0.2117919921875,-0.02685546875,0.99603271484375,0.7177734375,-0.88226318359375,-3.013153076171875,1,1.0,1.0,1.0,1.0,55.00
2022-11-23 20:21:49.260,0.5158037,-0.4576415,-0.05913327,0.759865,0.024350496,-0.35241646,-0.5143273,0.36395943,0.5268996,0.035735782,-0.045880657,0.53109235,0.064189635,-0.0600013,-0.12269564,0.2549435,-0.25774023,-0.6201351,-0.5711915,-0.20454754,765.56775,834.87177,785.31134,739.7802,713.9927,-0.2117919921875,-0.02685546875,0.99603271484375,0.7177734375,-0.88226318359375,-3.013153076171875,1,1.0,1.0,1.0,1.0,55.00
2022-11-23 20:21:49.261,0.5158037,-0.4576415,-0.05913327,0.759865,0.024350496,-0.35241646,-0.5143273,0.36395943,0.5268996,0.035735782,-0.045880657,0.53109235,0.064189635,-0.0600013,-0.12269564,0.2549435,-0.25774023,-0.6201351,-0.5711915,-0.20454754,764.35895,840.10986,779.67035,733.73627,639.0476,-0.2117919921875,-0.02685546875,0.99603271484375,0.7177734375,-0.88226318359375,-3.013153076171875,1,1.0,1.0,1.0,1.0,55.00
2022-11-23 20:21:49.261,0.5158037,-0.4576415,-0.05913327,0.759865,0.024350496,-0.35241646,-0.5143273,0.36395943,0.5268996,0.035735782,-0.045880657,0.53109235,0.064189635,-0.0600013,-0.12269564,0.2549435,-0.25774023,-0.6201351,-0.5711915,-0.20454754,792.96704,845.7509,774.83514,757.1062,915.05493,-0.2117919921875,-0.02685546875,0.99603271484375,0.7177734375,-0.88226318359375,-3.013153076171875,1,1.0,1.0,1.0,1.0,55.00
2022-11-23 20:21:49.262,0.5158037,-0.4576415,-0.05913327,0.759865,0.024350496,-0.35241646,-0.5143273,0.36395943,0.5268996,0.035735782,-0.045880657,0.53109235,0.064189635,-0.0600013,-0.12269564,0.2549435,-0.25774023,-0.6201351,-0.5711915,-0.20454754,785.31134,840.9158,768.7912,759.12085,1023.8461,-0.2117919921875,-0.02685546875,0.99603271484375,0.7177734375,-0.88226318359375,-3.013153076171875,1,1.0,1.0,1.0,1.0,55.00
2022-11-23 20:21:49.262,0.5158037,-0.4576415,-0.05913327,0.759865,0.024350496,-0.35241646,-0.5143273,0.36395943,0.5268996,0.035735782,-0.045880657,0.53109235,0.064189635,-0.0600013,-0.12269564,0.2549435,-0.25774023,-0.6201351,-0.5711915,-0.20454754,748.24176,839.707,767.98535,725.2747,850.989,-0.2117919921875,-0.02685546875,0.99603271484375,0.7177734375,-0.88226318359375,-3.013153076171875,1,1.0,1.0,1.0,1.0,55.00
2022-11-23 20:21:49.307,0.5158037,-0.4576415,-0.05913327,0.759865,0.024350496,-0.35241646,-0.5143273,0.36395943,0.5268996,0.035735782,-0.045880657,0.53109235,0.064189635,-0.0600013,-0.12269564,0.2549435,-0.25774023,-0.6201351,-0.5711915,-0.20454754,736.55676,844.1392,766.77655,705.9341,662.4176,-0.18798828125,-0.035888671875,0.99591064453125,1.443023681640625,-2.041168212890625,-2.51220703125,1,1.0,1.0,1.0,1.0,55.00
2022-11-23 20:21:49.307,0.5158037,-0.4576415,-0.05913327,0.759865,0.024350496,-0.35241646,-0.5143273,0.36395943,0.5268996,0.035735782,-0.045880657,0.53109235,0.064189635,-0.0600013,-0.12269564,0.2549435,-0.25774023,-0.6201351,-0.5711915,-0.20454754,776.8498,844.1392,766.77655,737.3626,788.1319,-0.18798828125,-0.035888671875,0.99591064453125,1.443023681640625,-2.041168212890625,-2.51220703125,1,1.0,1.0,1.0,1.0,55.00
2022-11-23 20:21:49.308,0.5158037,-0.4576415,-0.05913327,0.759865,0.024350496,-0.35241646,-0.5143273,0.36395943,0.5268996,0.035735782,-0.045880657,0.53109235,0.064189635,-0.0600013,-0.12269564,0.2549435,-0.25774023,-0.6201351,-0.5711915,-0.20454754,796.1905,842.1245,767.98535,747.03296,947.6923,-0.18798828125,-0.035888671875,0.99591064453125,1.443023681640625,-2.041168212890625,-2.51220703125,1,1.0,1.0,1.0,1.0,55.00
2022-11-23 20:21:49.308,0.5158037,-0.4576415,-0.05913327,0.759865,0.024350496,-0.35241646,-0.5143273,0.36395943,0.5268996,0.035735782,-0.045880657,0.53109235,0.064189635,-0.0600013,-0.12269564,0.2549435,-0.25774023,-0.6201351,-0.5711915,-0.20454754,757.9121,848.1685,765.9707,716.8132,751.06226,-0.18798828125,-0.035888671875,0.99591064453125,1.443023681640625,-2.041168212890625,-2.51220703125,1,1.0,1.0,1.0,1.0,55.00
2022-11-23 20:21:49.308,0.5158037,-0.4576415,-0.05913327,0.759865,0.024350496,-0.35241646,-0.5143273,0.36395943,0.5268996,0.035735782,-0.045880657,0.53109235,0.064189635,-0.0600013,-0.12269564,0.2549435,-0.25774023,-0.6201351,-0.5711915,-0.20454754,743.00366,852.1978,767.5824,718.4249,585.4579,-0.18798828125,-0.035888671875,0.99591064453125,1.443023681640625,-2.041168212890625,-2.51220703125,1,1.0,1.0,1.0,1.0,55.00
2022-11-23 20:21:49.308,0.5158037,-0.4576415,-0.05913327,0.759865,0.024350496,-0.35241646,-0.5143273,0.36395943,0.5268996,0.035735782,-0.045880657,0.53109235,0.064189635,-0.0600013,-0.12269564,0.2549435,-0.25774023,-0.6201351,-0.5711915,-0.20454754,755.09155,842.9304,764.7619,741.79486,948.0952,-0.18798828125,-0.035888671875,0.99591064453125,1.443023681640625,-2.041168212890625,-2.51220703125,1,1.0,1.0,1.0,1.0,55.00
2022-11-23 20:21:49.308,0.5158037,-0.4576415,-0.05913327,0.759865,0.024350496,-0.35241646,-0.5143273,0.36395943,0.5268996,0.035735782,-0.045880657,0.53109235,0.064189635,-0.0600013,-0.12269564,0.2549435,-0.25774023,-0.6201351,-0.5711915,-0.20454754,772.01465,839.304,760.7326,741.39197,1163.2601,-0.18798828125,-0.035888671875,0.99591064453125,1.443023681640625,-2.041168212890625,-2.51220703125,1,1.0,1.0,1.0,1.0,55.00
2022-11-23 20:21:49.309,0.5158037,-0.4576415,-0.05913327,0.759865,0.024350496,-0.35241646,-0.5143273,0.36395943,0.5268996,0.035735782,-0.045880657,0.53109235,0.064189635,-0.0600013,-0.12269564,0.2549435,-0.25774023,-0.6201351,-0.5711915,-0.20454754,769.59705,841.7216,760.7326,721.6484,820.7692,-0.18798828125,-0.035888671875,0.99591064453125,1.443023681640625,-2.041168212890625,-2.51220703125,1,1.0,1.0,1.0,1.0,55.00
2022-11-23 20:21:49.309,0.5158037,-0.4576415,-0.05913327,0.759865,0.024350496,-0.35241646,-0.5143273,0.36395943,0.5268996,0.035735782,-0.045880657,0.53109235,0.064189635,-0.0600013,-0.12269564,0.2549435,-0.25774023,-0.6201351,-0.5711915,-0.20454754,745.0183,844.94507,760.7326,711.5751,678.93774,-0.18798828125,-0.035888671875,0.99591064453125,1.443023681640625,-2.041168212890625,-2.51220703125,1,1.0,1.0,1.0,1.0,55.00
2022-11-23 20:21:49.309,0.5158037,-0.4576415,-0.05913327,0.759865,0.024350496,-0.35241646,-0.5143273,0.36395943,0.5268996,0.035735782,-0.045880657,0.53109235,0.064189635,-0.0600013,-0.12269564,0.2549435,-0.25774023,-0.6201351,-0.5711915,-0.20454754,756.7033,850.989,760.7326,723.2601,814.7253,-0.18798828125,-0.035888671875,0.99591064453125,1.443023681640625,-2.041168212890625,-2.51220703125,1,1.0,1.0,1.0,1.0,55.00
2022-11-23 20:21:49.309,0.5158037,-0.4576415,-0.05913327,0.759865,0.024350496,-0.35241646,-0.5143273,0.36395943,0.5268996,0.035735782,-0.045880657,0.53109235,0.064189635,-0.0600013,-0.12269564,0.2549435,-0.25774023,-0.6201351,-0.5711915,-0.20454754,795.38464,853.4066,761.53845,755.89746,884.83514,-0.18798828125,-0.035888671875,0.99591064453125,1.443023681640625,-2.041168212890625,-2.51220703125,1,1.0,1.0,1.0,1.0,55.00
2022-11-23 20:21:49.309,0.5158037,-0.4576415,-0.05913327,0.759865,0.024350496,-0.35241646,-0.5143273,0.36395943,0.5268996,0.035735782,-0.045880657,0.53109235,0.064189635,-0.0600013,-0.12269564,0.2549435,-0.25774023,-0.6201351,-0.5711915,-0.20454754,794.57874,857.03296,759.5238,750.2564,747.4359,-0.18798828125,-0.035888671875,0.99591064453125,1.443023681640625,-2.041168212890625,-2.51220703125,1,1.0,1.0,1.0,1.0,55.00
2022-11-23 20:21:49.332,0.5158037,-0.4576415,-0.05913327,0.759865,0.024350496,-0.35241646,-0.5143273,0.36395943,0.5268996,0.035735782,-0.045880657,0.53109235,0.064189635,-0.0600013,-0.12269564,0.2549435,-0.25774023,-0.6201351,-0.5711915,-0.20454754,763.95605,857.8388,759.12085,724.0659,654.35895,-0.18798828125,-0.035888671875,0.99591064453125,1.443023681640625,-2.041168212890625,-2.51220703125,1,1.0,1.0,1.0,1.0,55.00
2022-11-23 20:21:49.333,0.5158037,-0.4576415,-0.05913327,0.759865,0.024350496,-0.35241646,-0.5143273,0.36395943,0.5268996,0.035735782,-0.045880657,0.53109235,0.064189635,-0.0600013,-0.12269564,0.2549435,-0.25774023,-0.6201351,-0.5711915,-0.20454754,769.59705,855.0183,763.95605,736.1539,702.71063,-0.18798828125,-0.035888671875,0.99591064453125,1.443023681640625,-2.041168212890625,-2.51220703125,1,1.0,1.0,1.0,1.0,55.00
2022-11-23 20:21:49.333,0.5158037,-0.4576415,-0.05913327,0.759865,0.024350496,-0.35241646,-0.5143273,0.36395943,0.5268996,0.035735782,-0.045880657,0.53109235,0.064189635,-0.0600013,-0.12269564,0.2549435,-0.25774023,-0.6201351,-0.5711915,-0.20454754,810.696,853.8095,765.56775,765.9707,831.2454,-0.18798828125,-0.035888671875,0.99591064453125,1.443023681640625,-2.041168212890625,-2.51220703125,1,1.0,1.0,1.0,1.0,55.00
2022-11-23 20:21:49.333,0.5158037,-0.4576415,-0.05913327,0.759865,0.024350496,-0.35241646,-0.5143273,0.36395943,0.5268996,0.035735782,-0.045880657,0.53109235,0.064189635,-0.0600013,-0.12269564,0.2549435,-0.25774023,-0.6201351,-0.5711915,-0.20454754,831.6484,856.2271,764.7619,774.43225,815.5311,-0.18798828125,-0.035888671875,0.99591064453125,1.443023681640625,-2.041168212890625,-2.51220703125,1,1.0,1.0,1.0,1.0,55.00
2022-11-23 20:21:49.334,0.5158037,-0.4576415,-0.05913327,0.759865,0.024350496,-0.35241646,-0.5143273,0.36395943,0.5268996,0.035735782,-0.045880657,0.53109235,0.064189635,-0.0600013,-0.12269564,0.2549435,-0.25774023,-0.6201351,-0.5711915,-0.20454754,796.5934,855.42126,768.3883,761.9414,859.85345,-0.18798828125,-0.035888671875,0.99591064453125,1.443023681640625,-2.041168212890625,-2.51220703125,1,1.0,1.0,1.0,1.0,55.00
2022-11-23 20:21:49.334,0.5158037,-0.4576415,-0.05913327,0.759865,0.024350496,-0.35241646,-0.5143273,0.36395943,0.5268996,0.035735782,-0.045880657,0.53109235,0.064189635,-0.0600013,-0.12269564,0.2549435,-0.25774023,-0.6201351,-0.5711915,-0.20454754,772.01465,853.00366,768.3883,756.7033,922.71063,-0.18798828125,-0.035888671875,0.99591064453125,1.443023681640625,-2.041168212890625,-2.51220703125,1,1.0,1.0,1.0,1.0,55.00
2022-11-23 20:21:49.334,0.5158037,-0.4576415,-0.05913327,0.759865,0.024350496,-0.35241646,-0.5143273,0.36395943,0.5268996,0.035735782,-0.045880657,0.53109235,0.064189635,-0.0600013,-0.12269564,0.2549435,-0.25774023,-0.6201351,-0.5711915,-0.20454754,808.68134,846.9597,765.56775,781.28204,973.47986,-0.18798828125,-0.035888671875,0.99591064453125,1.443023681640625,-2.041168212890625,-2.51220703125,1,1.0,1.0,1.0,1.0,55.00
2022-11-23 20:21:49.334,0.5158037,-0.4576415,-0.05913327,0.759865,0.024350496,-0.35241646,-0.5143273,0.36395943,0.5268996,0.035735782,-0.045880657,0.53109235,0.064189635,-0.0600013,-0.12269564,0.2549435,-0.25774023,-0.6201351,-0.5711915,-0.20454754,838.0952,846.55676,762.74725,801.8315,1029.8901,-0.18798828125,-0.035888671875,0.99591064453125,1.443023681640625,-2.041168212890625,-2.51220703125,1,1.0,1.0,1.0,1.0,55.00
2022-11-23 20:21:49.334,0.5158037,-0.4576415,-0.05913327,0.759865,0.024350496,-0.35241646,-0.5143273,0.36395943,0.5268996,0.035735782,-0.045880657,0.53109235,0.064189635,-0.0600013,-0.12269564,0.2549435,-0.25774023,-0.6201351,-0.5711915,-0.20454754,817.1429,845.34796,763.95605,789.34064,964.21246,-0.18798828125,-0.035888671875,0.99591064453125,1.443023681640625,-2.041168212890625,-2.51220703125,1,1.0,1.0,1.0,1.0,55.00
2022-11-23 20:21:49.335,0.5639249,-0.35937878,0.01450115,0.7676446,0.06743738,-0.33218136,-0.47793478,0.36279017,0.5337745,0.022188848,-0.064692296,0.53109235,0.059710257,-0.05933307,-0.1298345,0.25145498,-0.23610453,-0.60513365,-0.57855535,-0.21980771,792.1612,843.73627,770.80585,780.07324,909.011,-0.18798828125,-0.035888671875,0.99591064453125,1.443023681640625,-2.041168212890625,-2.51220703125,1,1.0,1.0,1.0,1.0,55.00
2022-11-23 20:21:49.336,0.5639249,-0.35937878,0.01450115,0.7676446,0.06743738,-0.33218136,-0.47793478,0.36279017,0.5337745,0.022188848,-0.064692296,0.53109235,0.059710257,-0.05933307,-0.1298345,0.25145498,-0.23610453,-0.60513365,-0.57855535,-0.21980771,810.696,843.73627,776.8498,792.96704,774.83514,-0.18798828125,-0.035888671875,0.99591064453125,1.443023681640625,-2.041168212890625,-2.51220703125,1,1.0,1.0,1.0,1.0,55.00
2022-11-23 20:21:49.336,0.5639249,-0.35937878,0.01450115,0.7676446,0.06743738,-0.33218136,-0.47793478,0.36279017,0.5337745,0.022188848,-0.064692296,0.53109235,0.059710257,-0.05933307,-0.1298345,0.25145498,-0.23610453,-0.60513365,-0.57855535,-0.21980771,849.3773,837.6923,783.69965,812.3077,815.9341,-0.18798828125,-0.035888671875,0.99591064453125,1.443023681640625,-2.041168212890625,-2.51220703125,1,1.0,1.0,1.0,1.0,55.00
2022-11-23 20:21:49.382,0.5639249,-0.35937878,0.01450115,0.7676446,0.06743738,-0.33218136,-0.47793478,0.36279017,0.5337745,0.022188848,-0.064692296,0.53109235,0.059710257,-0.05933307,-0.1298345,0.25145498,-0.23610453,-0.60513365,-0.57855535,-0.21980771,828.022,832.4542,782.8938,800.6227,760.32965,-0.19659423828125,-0.0379638671875,0.990478515625,2.04864501953125,-2.235565185546875,0.635528564453125,1,1.0,1.0,1.0,1.0,55.00
2022-11-23 20:21:49.383,0.5639249,-0.35937878,0.01450115,0.7676446,0.06743738,-0.33218136,-0.47793478,0.36279017,0.5337745,0.022188848,-0.064692296,0.53109235,0.059710257,-0.05933307,-0.1298345,0.25145498,-0.23610453,-0.60513365,-0.57855535,-0.21980771,793.36993,830.84247,782.0879,786.52014,602.7839,-0.19659423828125,-0.0379638671875,0.990478515625,2.04864501953125,-2.235565185546875,0.635528564453125,1,1.0,1.0,1.0,1.0,55.00
2022-11-23 20:21:49.383,0.5639249,-0.35937878,0.01450115,0.7676446,0.06743738,-0.33218136,-0.47793478,0.36279017,0.5337745,0.022188848,-0.064692296,0.53109235,0.059710257,-0.05933307,-0.1298345,0.25145498,-0.23610453,-0.60513365,-0.57855535,-0.21980771,808.2784,827.2161,783.2967,802.23444,620.10986,-0.19659423828125,-0.0379638671875,0.990478515625,2.04864501953125,-2.235565185546875,0.635528564453125,1,1.0,1.0,1.0,1.0,55.00
2022-11-23 20:21:49.383,0.5639249,-0.35937878,0.01450115,0.7676446,0.06743738,-0.33218136,-0.47793478,0.36279017,0.5337745,0.022188848,-0.064692296,0.53109235,0.059710257,-0.05933307,-0.1298345,0.25145498,-0.23610453,-0.60513365,-0.57855535,-0.21980771,839.707,825.2015,784.90845,818.7546,757.9121,-0.19659423828125,-0.0379638671875,0.990478515625,2.04864501953125,-2.235565185546875,0.635528564453125,1,1.0,1.0,1.0,1.0,55.00
2022-11-23 20:21:49.383,0.5639249,-0.35937878,0.01450115,0.7676446,0.06743738,-0.33218136,-0.47793478,0.36279017,0.5337745,0.022188848,-0.064692296,0.53109235,0.059710257,-0.05933307,-0.1298345,0.25145498,-0.23610453,-0.60513365,-0.57855535,-0.21980771,845.7509,827.619,787.326,813.1135,863.8828,-0.19659423828125,-0.0379638671875,0.990478515625,2.04864501953125,-2.235565185546875,0.635528564453125,1,1.0,1.0,1.0,1.0,55.00
2022-11-23 20:21:49.383,0.5639249,-0.35937878,0.01450115,0.7676446,0.06743738,-0.33218136,-0.47793478,0.36279017,0.5337745,0.022188848,-0.064692296,0.53109235,0.059710257,-0.05933307,-0.1298345,0.25145498,-0.23610453,-0.60513365,-0.57855535,-0.21980771,809.89014,827.619,786.52014,794.9817,799.011,-0.19659423828125,-0.0379638671875,0.990478515625,2.04864501953125,-2.235565185546875,0.635528564453125,1,1.0,1.0,1.0,1.0,55.00
2022-11-23 20:21:49.384,0.5639249,-0.35937878,0.01450115,0.7676446,0.06743738,-0.33218136,-0.47793478,0.36279017,0.5337745,0.022188848,-0.064692296,0.53109235,0.059710257,-0.05933307,-0.1298345,0.25145498,-0.23610453,-0.60513365,-0.57855535,-0.21980771,791.3553,823.5897,786.1172,795.38464,690.2198,-0.19659423828125,-0.0379638671875,0.990478515625,2.04864501953125,-2.235565185546875,0.635528564453125,1,1.0,1.0,1.0,1.0,55.00
2022-11-23 20:21:49.384,0.5639249,-0.35937878,0.01450115,0.7676446,0.06743738,-0.33218136,-0.47793478,0.36279017,0.5337745,0.022188848,-0.064692296,0.53109235,0.059710257,-0.05933307,-0.1298345,0.25145498,-0.23610453,-0.60513365,-0.57855535,-0.21980771,825.2015,822.7839,787.72894,821.5751,782.49084,-0.19659423828125,-0.0379638671875,0.990478515625,2.04864501953125,-2.235565185546875,0.635528564453125,1,1.0,1.0,1.0,1.0,55.00
2022-11-23 20:21:49.384,0.5639249,-0.35937878,0.01450115,0.7676446,0.06743738,-0.33218136,-0.47793478,0.36279017,0.5337745,0.022188848,-0.064692296,0.53109235,0.059710257,-0.05933307,-0.1298345,0.25145498,-0.23610453,-0.60513365,-0.57855535,-0.21980771,843.3333,821.1722,787.72894,838.9011,1014.57874,-0.19659423828125,-0.0379638671875,0.990478515625,2.04864501953125,-2.235565185546875,0.635528564453125,1,1.0,1.0,1.0,1.0,55.00
2022-11-23 20:21:49.384,0.5639249,-0.35937878,0.01450115,0.7676446,0.06743738,-0.33218136,-0.47793478,0.36279017,0.5337745,0.022188848,-0.064692296,0.53109235,0.059710257,-0.05933307,-0.1298345,0.25145498,-0.23610453,-0.60513365,-0.57855535,-0.21980771,807.0696,817.9487,790.14655,813.5165,965.0183,-0.19659423828125,-0.0379638671875,0.990478515625,2.04864501953125,-2.235565185546875,0.635528564453125,1,1.0,1.0,1.0,1.0,55.00
2022-11-23 20:21:49.384,0.5639249,-0.35937878,0.01450115,0.7676446,0.06743738,-0.33218136,-0.47793478,0.36279017,0.5337745,0.022188848,-0.064692296,0.53109235,0.059710257,-0.05933307,-0.1298345,0.25145498,-0.23610453,-0.60513365,-0.57855535,-0.21980771,792.5641,812.3077,794.57874,796.5934,633.4066,-0.19659423828125,-0.0379638671875,0.990478515625,2.04864501953125,-2.235565185546875,0.635528564453125,1,1.0,1.0,1.0,1.0,55.00
2022-11-23 20:21:49.385,0.5639249,-0.35937878,0.01450115,0.7676446,0.06743738,-0.33218136,-0.47793478,0.36279017,0.5337745,0.022188848,-0.064692296,0.53109235,0.059710257,-0.05933307,-0.1298345,0.25145498,-0.23610453,-0.60513365,-0.57855535,-0.21980771,816.7399,805.4579,790.9524,813.91943,703.5165,-0.19659423828125,-0.0379638671875,0.990478515625,2.04864501953125,-2.235565185546875,0.635528564453125,1,1.0,1.0,1.0,1.0,55.00
2022-11-23 20:21:49.432,0.5639249,-0.35937878,0.01450115,0.7676446,0.06743738,-0.33218136,-0.47793478,0.36279017,0.5337745,0.022188848,-0.064692296,0.53109235,0.059710257,-0.05933307,-0.1298345,0.25145498,-0.23610453,-0.60513365,-0.57855535,-0.21980771,836.08057,805.4579,787.72894,826.8132,844.1392,-0.20843505859375,-0.0333251953125,0.98443603515625,3.63372802734375,-2.220611572265625,-2.10845947265625,1,1.0,1.0,1.0,1.0,55.00
2022-11-23 20:21:49.433,0.5639249,-0.35937878,0.01450115,0.7676446,0.06743738,-0.33218136,-0.47793478,0.36279017,0.5337745,0.022188848,-0.064692296,0.53109235,0.059710257,-0.05933307,-0.1298345,0.25145498,-0.23610453,-0.60513365,-0.57855535,-0.21980771,811.50183,808.2784,790.54944,810.696,745.0183,-0.20843505859375,-0.0333251953125,0.98443603515625,3.63372802734375,-2.220611572265625,-2.10845947265625,1,1.0,1.0,1.0,1.0,55.00
2022-11-23 20:21:49.433,0.5639249,-0.35937878,0.01450115,0.7676446,0.06743738,-0.33218136,-0.47793478,0.36279017,0.5337745,0.022188848,-0.064692296,0.53109235,0.059710257,-0.05933307,-0.1298345,0.25145498,-0.23610453,-0.60513365,-0.57855535,-0.21980771,787.72894,810.696,796.99634,793.7729,618.49817,-0.20843505859375,-0.0333251953125,0.98443603515625,3.63372802734375,-2.220611572265625,-2.10845947265625,1,1.0,1.0,1.0,1.0,55.00
2022-11-23 20:21:49.433,0.5639249,-0.35937878,0.01450115,0.7676446,0.06743738,-0.33218136,-0.47793478,0.36279017,0.5337745,0.022188848,-0.064692296,0.53109235,0.059710257,-0.05933307,-0.1298345,0.25145498,-0.23610453,-0.60513365,-0.57855535,-0.21980771,803.8461,807.0696,796.5934,815.9341,708.7546,-0.20843505859375,-0.0333251953125,0.98443603515625,3.63372802734375,-2.220611572265625,-2.10845947265625,1,1.0,1.0,1.0,1.0,55.00
2022-11-23 20:21:49.433,0.5639249,-0.35937878,0.01450115,0.7676446,0.06743738,-0.33218136,-0.47793478,0.36279017,0.5337745,0.022188848,-0.064692296,0.53109235,0.059710257,-0.05933307,-0.1298345,0.25145498,-0.23610453,-0.60513365,-0.57855535,-0.21980771,834.0659,807.47253,795.38464,835.2747,863.47986,-0.20843505859375,-0.0333251953125,0.98443603515625,3.63372802734375,-2.220611572265625,-2.10845947265625,1,1.0,1.0,1.0,1.0,55.00
2022-11-23 20:21:49.434,0.5639249,-0.35937878,0.01450115,0.7676446,0.06743738,-0.33218136,-0.47793478,0.36279017,0.5337745,0.022188848,-0.064692296,0.53109235,0.059710257,-0.05933307,-0.1298345,0.25145498,-0.23610453,-0.60513365,-0.57855535,-0.21980771,825.2015,808.68134,796.1905,812.3077,865.4945,-0.20843505859375,-0.0333251953125,0.98443603515625,3.63372802734375,-2.220611572265625,-2.10845947265625,1,1.0,1.0,1.0,1.0,55.00
2022-11-23 20:21:49.434,0.5639249,-0.35937878,0.01450115,0.7676446,0.06743738,-0.33218136,-0.47793478,0.36279017,0.5337745,0.022188848,-0.064692296,0.53109235,0.059710257,-0.05933307,-0.1298345,0.25145498,-0.23610453,-0.60513365,-0.57855535,-0.21980771,784.90845,805.8608,795.38464,786.52014,715.2015,-0.20843505859375,-0.0333251953125,0.98443603515625,3.63372802734375,-2.220611572265625,-2.10845947265625,1,1.0,1.0,1.0,1.0,55.00
2022-11-23 20:21:49.434,0.5639249,-0.35937878,0.01450115,0.7676446,0.06743738,-0.33218136,-0.47793478,0.36279017,0.5337745,0.022188848,-0.064692296,0.53109235,0.059710257,-0.05933307,-0.1298345,0.25145498,-0.23610453,-0.60513365,-0.57855535,-0.21980771,792.96704,807.0696,798.60803,792.96704,749.85345,-0.20843505859375,-0.0333251953125,0.98443603515625,3.63372802734375,-2.220611572265625,-2.10845947265625,1,1.0,1.0,1.0,1.0,55.00
2022-11-23 20:21:49.434,0.5639249,-0.35937878,0.01450115,0.7676446,0.06743738,-0.33218136,-0.47793478,0.36279017,0.5337745,0.022188848,-0.064692296,0.53109235,0.059710257,-0.05933307,-0.1298345,0.25145498,-0.23610453,-0.60513365,-0.57855535,-0.21980771,828.4249,808.68134,794.17584,816.7399,1052.8572,-0.20843505859375,-0.0333251953125,0.98443603515625,3.63372802734375,-2.220611572265625,-2.10845947265625,1,1.0,1.0,1.0,1.0,55.00
2022-11-23 20:21:49.434,0.5639249,-0.35937878,0.01450115,0.7676446,0.06743738,-0.33218136,-0.47793478,0.36279017,0.5337745,0.022188848,-0.064692296,0.53109235,0.059710257,-0.05933307,-0.1298345,0.25145498,-0.23610453,-0.60513365,-0.57855535,-0.21980771,836.4835,807.8755,795.38464,827.2161,946.4835,-0.20843505859375,-0.0333251953125,0.98443603515625,3.63372802734375,-2.220611572265625,-2.10845947265625,1,1.0,1.0,1.0,1.0,55.00
2022-11-23 20:21:49.435,0.5639249,-0.35937878,0.01450115,0.7676446,0.06743738,-0.33218136,-0.47793478,0.36279017,0.5337745,0.022188848,-0.064692296,0.53109235,0.059710257,-0.05933307,-0.1298345,0.25145498,-0.23610453,-0.60513365,-0.57855535,-0.21980771,803.8461,805.8608,801.4286,800.6227,665.64105,-0.20843505859375,-0.0333251953125,0.98443603515625,3.63372802734375,-2.220611572265625,-2.10845947265625,1,1.0,1.0,1.0,1.0,55.00
2022-11-23 20:21:49,,,,,,,,,,,,,,,,,,,,,,,,,,,,,,,,,,,,,,/muse/elements/blink
2022-11-23 20:21:49.435,0.6054237,-0.0054400056,0.19405049,0.7740586,0.19295181,-0.26455423,-0.3545804,0.37086153,0.53622913,0.015654318,-0.064692296,0.53109235,0.05633809,-0.05612414,-0.14134164,0.2443214,-0.20597118,-0.58019274,-0.5795391,-0.24187581,795.38464,799.81683,799.81683,801.4286,724.87177,-0.20843505859375,-0.0333251953125,0.98443603515625,3.63372802734375,-2.220611572265625,-2.10845947265625,1,1.0,1.0,1.0,1.0,55.00
2022-11-23 20:21:49.484,0.6054237,-0.0054400056,0.19405049,0.7740586,0.19295181,-0.26455423,-0.3545804,0.37086153,0.53622913,0.015654318,-0.064692296,0.53109235,0.05633809,-0.05612414,-0.14134164,0.2443214,-0.20597118,-0.58019274,-0.5795391,-0.24187581,834.0659,802.23444,800.2198,832.8571,845.34796,-0.191162109375,-0.02667236328125,1.0047607421875,4.66552734375,-3.641204833984375,-5.27862548828125,1,1.0,1.0,1.0,1.0,55.00
2022-11-23 20:21:49.484,0.6054237,-0.0054400056,0.19405049,0.7740586,0.19295181,-0.26455423,-0.3545804,0.37086153,0.53622913,0.015654318,-0.064692296,0.53109235,0.05633809,-0.05612414,-0.14134164,0.2443214,-0.20597118,-0.58019274,-0.5795391,-0.24187581,852.1978,809.89014,802.23444,837.28937,845.34796,-0.191162109375,-0.02667236328125,1.0047607421875,4.66552734375,-3.641204833984375,-5.27862548828125,1,1.0,1.0,1.0,1.0,55.00
2022-11-23 20:21:49.484,0.6054237,-0.0054400056,0.19405049,0.7740586,0.19295181,-0.26455423,-0.3545804,0.37086153,0.53622913,0.015654318,-0.064692296,0.53109235,0.05633809,-0.05612414,-0.14134164,0.2443214,-0.20597118,-0.58019274,-0.5795391,-0.24187581,801.4286,805.05493,799.41394,799.011,716.0073,-0.191162109375,-0.02667236328125,1.0047607421875,4.66552734375,-3.641204833984375,-5.27862548828125,1,1.0,1.0,1.0,1.0,55.00
2022-11-23 20:21:49.485,0.6054237,-0.0054400056,0.19405049,0.7740586,0.19295181,-0.26455423,-0.3545804,0.37086153,0.53622913,0.015654318,-0.064692296,0.53109235,0.05633809,-0.05612414,-0.14134164,0.2443214,-0.20597118,-0.58019274,-0.5795391,-0.24187581,780.87915,802.23444,795.38464,783.2967,579.41394,-0.191162109375,-0.02667236328125,1.0047607421875,4.66552734375,-3.641204833984375,-5.27862548828125,1,1.0,1.0,1.0,1.0,55.00
2022-11-23 20:21:49.485,0.6054237,-0.0054400056,0.19405049,0.7740586,0.19295181,-0.26455423,-0.3545804,0.37086153,0.53622913,0.015654318,-0.064692296,0.53109235,0.05633809,-0.05612414,-0.14134164,0.2443214,-0.20597118,-0.58019274,-0.5795391,-0.24187581,820.3663,806.6667,799.81683,817.5458,712.7839,-0.191162109375,-0.02667236328125,1.0047607421875,4.66552734375,-3.641204833984375,-5.27862548828125,1,1.0,1.0,1.0,1.0,55.00
2022-11-23 20:21:49.485,0.6054237,-0.0054400056,0.19405049,0.7740586,0.19295181,-0.26455423,-0.3545804,0.37086153,0.53622913,0.015654318,-0.064692296,0.53109235,0.05633809,-0.05612414,-0.14134164,0.2443214,-0.20597118,-0.58019274,-0.5795391,-0.24187581,844.5421,808.2784,802.23444,836.08057,941.6484,-0.191162109375,-0.02667236328125,1.0047607421875,4.66552734375,-3.641204833984375,-5.27862548828125,1,1.0,1.0,1.0,1.0,55.00
2022-11-23 20:21:49.485,0.6054237,-0.0054400056,0.19405049,0.7740586,0.19295181,-0.26455423,-0.3545804,0.37086153,0.53622913,0.015654318,-0.064692296,0.53109235,0.05633809,-0.05612414,-0.14134164,0.2443214,-0.20597118,-0.58019274,-0.5795391,-0.24187581,826.0073,811.0989,803.44324,819.9634,880.80585,-0.191162109375,-0.02667236328125,1.0047607421875,4.66552734375,-3.641204833984375,-5.27862548828125,1,1.0,1.0,1.0,1.0,55.00
2022-11-23 20:21:49.486,0.6054237,-0.0054400056,0.19405049,0.7740586,0.19295181,-0.26455423,-0.3545804,0.37086153,0.53622913,0.015654318,-0.064692296,0.53109235,0.05633809,-0.05612414,-0.14134164,0.2443214,-0.20597118,-0.58019274,-0.5795391,-0.24187581,792.96704,814.3223,804.65204,796.99634,861.06226,-0.191162109375,-0.02667236328125,1.0047607421875,4.66552734375,-3.641204833984375,-5.27862548828125,1,1.0,1.0,1.0,1.0,55.00
2022-11-23 20:21:49.486,0.6054237,-0.0054400056,0.19405049,0.7740586,0.19295181,-0.26455423,-0.3545804,0.37086153,0.53622913,0.015654318,-0.064692296,0.53109235,0.05633809,-0.05612414,-0.14134164,0.2443214,-0.20597118,-0.58019274,-0.5795391,-0.24187581,803.44324,811.9048,803.0403,807.0696,903.7729,-0.191162109375,-0.02667236328125,1.0047607421875,4.66552734375,-3.641204833984375,-5.27862548828125,1,1.0,1.0,1.0,1.0,55.00
2022-11-23 20:21:49.486,0.6054237,-0.0054400056,0.19405049,0.7740586,0.19295181,-0.26455423,-0.3545804,0.37086153,0.53622913,0.015654318,-0.064692296,0.53109235,0.05633809,-0.05612414,-0.14134164,0.2443214,-0.20597118,-0.58019274,-0.5795391,-0.24187581,834.0659,811.0989,806.6667,828.4249,927.1429,-0.191162109375,-0.02667236328125,1.0047607421875,4.66552734375,-3.641204833984375,-5.27862548828125,1,1.0,1.0,1.0,1.0,55.00
2022-11-23 20:21:49.487,0.6054237,-0.0054400056,0.19405049,0.7740586,0.19295181,-0.26455423,-0.3545804,0.37086153,0.53622913,0.015654318,-0.064692296,0.53109235,0.05633809,-0.05612414,-0.14134164,0.2443214,-0.20597118,-0.58019274,-0.5795391,-0.24187581,827.2161,811.9048,803.8461,821.978,1028.6813,-0.191162109375,-0.02667236328125,1.0047607421875,4.66552734375,-3.641204833984375,-5.27862548828125,1,1.0,1.0,1.0,1.0,55.00
2022-11-23 20:21:49.487,0.6054237,-0.0054400056,0.19405049,0.7740586,0.19295181,-0.26455423,-0.3545804,0.37086153,0.53622913,0.015654318,-0.064692296,0.53109235,0.05633809,-0.05612414,-0.14134164,0.2443214,-0.20597118,-0.58019274,-0.5795391,-0.24187581,793.36993,808.2784,802.23444,798.20514,908.20514,-0.191162109375,-0.02667236328125,1.0047607421875,4.66552734375,-3.641204833984375,-5.27862548828125,1,1.0,1.0,1.0,1.0,55.00
2022-11-23 20:21:49.532,0.6054237,-0.0054400056,0.19405049,0.7740586,0.19295181,-0.26455423,-0.3545804,0.37086153,0.53622913,0.015654318,-0.064692296,0.53109235,0.05633809,-0.05612414,-0.14134164,0.2443214,-0.20597118,-0.58019274,-0.5795391,-0.24187581,791.3553,810.696,806.6667,803.8461,778.46155,-0.177490234375,-0.01263427734375,1.00860595703125,4.11224365234375,-4.3365478515625,-3.835601806640625,1,1.0,1.0,1.0,1.0,50.00
2022-11-23 20:21:49.533,0.6054237,-0.0054400056,0.19405049,0.7740586,0.19295181,-0.26455423,-0.3545804,0.37086153,0.53622913,0.015654318,-0.064692296,0.53109235,0.05633809,-0.05612414,-0.14134164,0.2443214,-0.20597118,-0.58019274,-0.5795391,-0.24187581,824.7985,813.1135,805.05493,817.9487,810.696,-0.177490234375,-0.01263427734375,1.00860595703125,4.11224365234375,-4.3365478515625,-3.835601806640625,1,1.0,1.0,1.0,1.0,50.00
2022-11-23 20:21:49.533,0.6054237,-0.0054400056,0.19405049,0.7740586,0.19295181,-0.26455423,-0.3545804,0.37086153,0.53622913,0.015654318,-0.064692296,0.53109235,0.05633809,-0.05612414,-0.14134164,0.2443214,-0.20597118,-0.58019274,-0.5795391,-0.24187581,834.0659,804.2491,804.2491,820.7692,944.0659,-0.177490234375,-0.01263427734375,1.00860595703125,4.11224365234375,-4.3365478515625,-3.835601806640625,1,1.0,1.0,1.0,1.0,50.00
2022-11-23 20:21:49.533,0.6054237,-0.0054400056,0.19405049,0.7740586,0.19295181,-0.26455423,-0.3545804,0.37086153,0.53622913,0.015654318,-0.064692296,0.53109235,0.05633809,-0.05612414,-0.14134164,0.2443214,-0.20597118,-0.58019274,-0.5795391,-0.24187581,801.02563,805.05493,804.65204,804.65204,813.1135,-0.177490234375,-0.01263427734375,1.00860595703125,4.11224365234375,-4.3365478515625,-3.835601806640625,1,1.0,1.0,1.0,1.0,50.00
2022-11-23 20:21:49.533,0.6054237,-0.0054400056,0.19405049,0.7740586,0.19295181,-0.26455423,-0.3545804,0.37086153,0.53622913,0.015654318,-0.064692296,0.53109235,0.05633809,-0.05612414,-0.14134164,0.2443214,-0.20597118,-0.58019274,-0.5795391,-0.24187581,781.28204,811.0989,808.2784,788.93774,570.9524,-0.177490234375,-0.01263427734375,1.00860595703125,4.11224365234375,-4.3365478515625,-3.835601806640625,1,1.0,1.0,1.0,1.0,50.00
2022-11-23 20:21:49.534,0.6054237,-0.0054400056,0.19405049,0.7740586,0.19295181,-0.26455423,-0.3545804,0.37086153,0.53622913,0.015654318,-0.064692296,0.53109235,0.05633809,-0.05612414,-0.14134164,0.2443214,-0.20597118,-0.58019274,-0.5795391,-0.24187581,817.5458,808.68134,809.89014,811.9048,709.15753,-0.177490234375,-0.01263427734375,1.00860595703125,4.11224365234375,-4.3365478515625,-3.835601806640625,1,1.0,1.0,1.0,1.0,50.00
2022-11-23 20:21:49.534,0.6054237,-0.0054400056,0.19405049,0.7740586,0.19295181,-0.26455423,-0.3545804,0.37086153,0.53622913,0.015654318,-0.064692296,0.53109235,0.05633809,-0.05612414,-0.14134164,0.2443214,-0.20597118,-0.58019274,-0.5795391,-0.24187581,839.707,806.26373,809.89014,831.6484,952.52747,-0.177490234375,-0.01263427734375,1.00860595703125,4.11224365234375,-4.3365478515625,-3.835601806640625,1,1.0,1.0,1.0,1.0,50.00
2022-11-23 20:21:49.534,0.6054237,-0.0054400056,0.19405049,0.7740586,0.19295181,-0.26455423,-0.3545804,0.37086153,0.53622913,0.015654318,-0.064692296,0.53109235,0.05633809,-0.05612414,-0.14134164,0.2443214,-0.20597118,-0.58019274,-0.5795391,-0.24187581,799.011,808.2784,811.50183,809.4872,896.52014,-0.177490234375,-0.01263427734375,1.00860595703125,4.11224365234375,-4.3365478515625,-3.835601806640625,1,1.0,1.0,1.0,1.0,50.00
2022-11-23 20:21:49.534,0.6054237,-0.0054400056,0.19405049,0.7740586,0.19295181,-0.26455423,-0.3545804,0.37086153,0.53622913,0.015654318,-0.064692296,0.53109235,0.05633809,-0.05612414,-0.14134164,0.2443214,-0.20597118,-0.58019274,-0.5795391,-0.24187581,772.4176,807.0696,812.3077,794.17584,617.28937,-0.177490234375,-0.01263427734375,1.00860595703125,4.11224365234375,-4.3365478515625,-3.835601806640625,1,1.0,1.0,1.0,1.0,50.00
2022-11-23 20:21:49.534,0.6054237,-0.0054400056,0.19405049,0.7740586,0.19295181,-0.26455423,-0.3545804,0.37086153,0.53622913,0.015654318,-0.064692296,0.53109235,0.05633809,-0.05612414,-0.14134164,0.2443214,-0.20597118,-0.58019274,-0.5795391,-0.24187581,802.23444,803.0403,809.89014,811.50183,616.08057,-0.177490234375,-0.01263427734375,1.00860595703125,4.11224365234375,-4.3365478515625,-3.835601806640625,1,1.0,1.0,1.0,1.0,50.00
2022-11-23 20:21:49.535,0.6054237,-0.0054400056,0.19405049,0.7740586,0.19295181,-0.26455423,-0.3545804,0.37086153,0.53622913,0.015654318,-0.064692296,0.53109235,0.05633809,-0.05612414,-0.14134164,0.2443214,-0.20597118,-0.58019274,-0.5795391,-0.24187581,836.08057,809.4872,804.65204,833.663,792.1612,-0.177490234375,-0.01263427734375,1.00860595703125,4.11224365234375,-4.3365478515625,-3.835601806640625,1,1.0,1.0,1.0,1.0,50.00
2022-11-23 20:21:49.535,0.6054237,-0.0054400056,0.19405049,0.7740586,0.19295181,-0.26455423,-0.3545804,0.37086153,0.53622913,0.015654318,-0.064692296,0.53109235,0.05633809,-0.05612414,-0.14134164,0.2443214,-0.20597118,-0.58019274,-0.5795391,-0.24187581,811.50183,813.91943,804.65204,806.6667,751.06226,-0.177490234375,-0.01263427734375,1.00860595703125,4.11224365234375,-4.3365478515625,-3.835601806640625,1,1.0,1.0,1.0,1.0,50.00
2022-11-23 20:21:49.582,0.6054237,-0.0054400056,0.19405049,0.7740586,0.19295181,-0.26455423,-0.3545804,0.37086153,0.53622913,0.015654318,-0.064692296,0.53109235,0.05633809,-0.05612414,-0.14134164,0.2443214,-0.20597118,-0.58019274,-0.5795391,-0.24187581,781.685,810.696,803.8461,784.10254,589.0842,-0.177490234375,-0.01263427734375,1.00860595703125,4.11224365234375,-4.3365478515625,-3.835601806640625,1,1.0,1.0,1.0,1.0,50.00
2022-11-23 20:21:49.583,0.64851326,0.4205674,0.4520791,0.7700342,0.40941504,-0.11413731,-0.12900601,0.3783789,0.5510633,0.024546416,-0.03251469,0.53109235,0.059521623,-0.044982955,-0.15527104,0.23646463,-0.15656728,-0.54754186,-0.5727555,-0.2623602,798.20514,809.89014,805.8608,812.3077,638.6447,-0.177490234375,-0.01263427734375,1.00860595703125,4.11224365234375,-4.3365478515625,-3.835601806640625,1,1.0,1.0,1.0,1.0,50.00
2022-11-23 20:21:49.584,0.64851326,0.4205674,0.4520791,0.7700342,0.40941504,-0.11413731,-0.12900601,0.3783789,0.5510633,0.024546416,-0.03251469,0.53109235,0.059521623,-0.044982955,-0.15527104,0.23646463,-0.15656728,-0.54754186,-0.5727555,-0.2623602,832.0513,808.68134,807.8755,831.6484,842.9304,-0.177490234375,-0.01263427734375,1.00860595703125,4.11224365234375,-4.3365478515625,-3.835601806640625,1,1.0,1.0,1.0,1.0,50.00
2022-11-23 20:21:49.584,0.64851326,0.4205674,0.4520791,0.7700342,0.40941504,-0.11413731,-0.12900601,0.3783789,0.5510633,0.024546416,-0.03251469,0.53109235,0.059521623,-0.044982955,-0.15527104,0.23646463,-0.15656728,-0.54754186,-0.5727555,-0.2623602,824.7985,807.8755,805.4579,827.619,853.8095,-0.177490234375,-0.01263427734375,1.00860595703125,4.11224365234375,-4.3365478515625,-3.835601806640625,1,1.0,1.0,1.0,1.0,50.00
2022-11-23 20:21:49.584,0.64851326,0.4205674,0.4520791,0.7700342,0.40941504,-0.11413731,-0.12900601,0.3783789,0.5510633,0.024546416,-0.03251469,0.53109235,0.059521623,-0.044982955,-0.15527104,0.23646463,-0.15656728,-0.54754186,-0.5727555,-0.2623602,779.2674,807.0696,804.65204,795.78754,686.5934,-0.177490234375,-0.01263427734375,1.00860595703125,4.11224365234375,-4.3365478515625,-3.835601806640625,1,1.0,1.0,1.0,1.0,50.00
2022-11-23 20:21:49.585,0.64851326,0.4205674,0.4520791,0.7700342,0.40941504,-0.11413731,-0.12900601,0.3783789,0.5510633,0.024546416,-0.03251469,0.53109235,0.059521623,-0.044982955,-0.15527104,0.23646463,-0.15656728,-0.54754186,-0.5727555,-0.2623602,776.8498,805.8608,806.6667,784.90845,675.31134,-0.177490234375,-0.01263427734375,1.00860595703125,4.11224365234375,-4.3365478515625,-3.835601806640625,1,1.0,1.0,1.0,1.0,50.00
2022-11-23 20:21:49.585,0.64851326,0.4205674,0.4520791,0.7700342,0.40941504,-0.11413731,-0.12900601,0.3783789,0.5510633,0.024546416,-0.03251469,0.53109235,0.059521623,-0.044982955,-0.15527104,0.23646463,-0.15656728,-0.54754186,-0.5727555,-0.2623602,823.9927,807.47253,806.6667,816.7399,1056.4835,-0.177490234375,-0.01263427734375,1.00860595703125,4.11224365234375,-4.3365478515625,-3.835601806640625,1,1.0,1.0,1.0,1.0,50.00
2022-11-23 20:21:49.585,0.64851326,0.4205674,0.4520791,0.7700342,0.40941504,-0.11413731,-0.12900601,0.3783789,0.5510633,0.024546416,-0.03251469,0.53109235,0.059521623,-0.044982955,-0.15527104,0.23646463,-0.15656728,-0.54754186,-0.5727555,-0.2623602,839.304,808.68134,804.2491,824.3956,1207.1794,-0.177490234375,-0.01263427734375,1.00860595703125,4.11224365234375,-4.3365478515625,-3.835601806640625,1,1.0,1.0,1.0,1.0,50.00
2022-11-23 20:21:49.585,0.64851326,0.4205674,0.4520791,0.7700342,0.40941504,-0.11413731,-0.12900601,0.3783789,0.5510633,0.024546416,-0.03251469,0.53109235,0.059521623,-0.044982955,-0.15527104,0.23646463,-0.15656728,-0.54754186,-0.5727555,-0.2623602,789.34064,802.23444,802.23444,783.69965,797.3993,-0.177490234375,-0.01263427734375,1.00860595703125,4.11224365234375,-4.3365478515625,-3.835601806640625,1,1.0,1.0,1.0,1.0,50.00
2022-11-23 20:21:49.585,0.64851326,0.4205674,0.4520791,0.7700342,0.40941504,-0.11413731,-0.12900601,0.3783789,0.5510633,0.024546416,-0.03251469,0.53109235,0.059521623,-0.044982955,-0.15527104,0.23646463,-0.15656728,-0.54754186,-0.5727555,-0.2623602,771.2088,801.02563,805.05493,775.64105,589.4872,-0.177490234375,-0.01263427734375,1.00860595703125,4.11224365234375,-4.3365478515625,-3.835601806640625,1,1.0,1.0,1.0,1.0,50.00
2022-11-23 20:21:49.586,0.64851326,0.4205674,0.4520791,0.7700342,0.40941504,-0.11413731,-0.12900601,0.3783789,0.5510633,0.024546416,-0.03251469,0.53109235,0.059521623,-0.044982955,-0.15527104,0.23646463,-0.15656728,-0.54754186,-0.5727555,-0.2623602,815.9341,802.23444,807.0696,801.4286,771.2088,-0.177490234375,-0.01263427734375,1.00860595703125,4.11224365234375,-4.3365478515625,-3.835601806640625,1,1.0,1.0,1.0,1.0,50.00
2022-11-23 20:21:49.586,0.64851326,0.4205674,0.4520791,0.7700342,0.40941504,-0.11413731,-0.12900601,0.3783789,0.5510633,0.024546416,-0.03251469,0.53109235,0.059521623,-0.044982955,-0.15527104,0.23646463,-0.15656728,-0.54754186,-0.5727555,-0.2623602,851.79486,801.4286,803.0403,817.9487,1010.54944,-0.177490234375,-0.01263427734375,1.00860595703125,4.11224365234375,-4.3365478515625,-3.835601806640625,1,1.0,1.0,1.0,1.0,50.00
2022-11-23 20:21:49.628,0.64851326,0.4205674,0.4520791,0.7700342,0.40941504,-0.11413731,-0.12900601,0.3783789,0.5510633,0.024546416,-0.03251469,0.53109235,0.059521623,-0.044982955,-0.15527104,0.23646463,-0.15656728,-0.54754186,-0.5727555,-0.2623602,826.0073,804.2491,802.6374,809.4872,948.0952,-0.19207763671875,-0.01629638671875,0.99224853515625,4.5458984375,-3.3197021484375,-4.4561767578125,1,1.0,1.0,1.0,1.0,50.00
2022-11-23 20:21:49.629,0.64851326,0.4205674,0.4520791,0.7700342,0.40941504,-0.11413731,-0.12900601,0.3783789,0.5510633,0.024546416,-0.03251469,0.53109235,0.059521623,-0.044982955,-0.15527104,0.23646463,-0.15656728,-0.54754186,-0.5727555,-0.2623602,787.72894,799.011,803.44324,792.5641,766.3736,-0.19207763671875,-0.01629638671875,0.99224853515625,4.5458984375,-3.3197021484375,-4.4561767578125,1,1.0,1.0,1.0,1.0,50.00
2022-11-23 20:21:49.629,0.64851326,0.4205674,0.4520791,0.7700342,0.40941504,-0.11413731,-0.12900601,0.3783789,0.5510633,0.024546416,-0.03251469,0.53109235,0.059521623,-0.044982955,-0.15527104,0.23646463,-0.15656728,-0.54754186,-0.5727555,-0.2623602,803.8461,793.36993,803.0403,811.0989,854.61536,-0.19207763671875,-0.01629638671875,0.99224853515625,4.5458984375,-3.3197021484375,-4.4561767578125,1,1.0,1.0,1.0,1.0,50.00
2022-11-23 20:21:49.630,0.64851326,0.4205674,0.4520791,0.7700342,0.40941504,-0.11413731,-0.12900601,0.3783789,0.5510633,0.024546416,-0.03251469,0.53109235,0.059521623,-0.044982955,-0.15527104,0.23646463,-0.15656728,-0.54754186,-0.5727555,-0.2623602,837.28937,794.17584,805.4579,836.8865,984.7619,-0.19207763671875,-0.01629638671875,0.99224853515625,4.5458984375,-3.3197021484375,-4.4561767578125,1,1.0,1.0,1.0,1.0,50.00
2022-11-23 20:21:49.630,0.64851326,0.4205674,0.4520791,0.7700342,0.40941504,-0.11413731,-0.12900601,0.3783789,0.5510633,0.024546416,-0.03251469,0.53109235,0.059521623,-0.044982955,-0.15527104,0.23646463,-0.15656728,-0.54754186,-0.5727555,-0.2623602,815.5311,790.14655,807.8755,820.3663,826.4103,-0.19207763671875,-0.01629638671875,0.99224853515625,4.5458984375,-3.3197021484375,-4.4561767578125,1,1.0,1.0,1.0,1.0,50.00
2022-11-23 20:21:49.630,0.64851326,0.4205674,0.4520791,0.7700342,0.40941504,-0.11413731,-0.12900601,0.3783789,0.5510633,0.024546416,-0.03251469,0.53109235,0.059521623,-0.044982955,-0.15527104,0.23646463,-0.15656728,-0.54754186,-0.5727555,-0.2623602,775.64105,790.14655,809.0842,792.96704,759.5238,-0.19207763671875,-0.01629638671875,0.99224853515625,4.5458984375,-3.3197021484375,-4.4561767578125,1,1.0,1.0,1.0,1.0,50.00
2022-11-23 20:21:49.630,0.64851326,0.4205674,0.4520791,0.7700342,0.40941504,-0.11413731,-0.12900601,0.3783789,0.5510633,0.024546416,-0.03251469,0.53109235,0.059521623,-0.044982955,-0.15527104,0.23646463,-0.15656728,-0.54754186,-0.5727555,-0.2623602,788.93774,792.96704,806.26373,805.8608,821.1722,-0.19207763671875,-0.01629638671875,0.99224853515625,4.5458984375,-3.3197021484375,-4.4561767578125,1,1.0,1.0,1.0,1.0,50.00
2022-11-23 20:21:49.630,0.64851326,0.4205674,0.4520791,0.7700342,0.40941504,-0.11413731,-0.12900601,0.3783789,0.5510633,0.024546416,-0.03251469,0.53109235,0.059521623,-0.044982955,-0.15527104,0.23646463,-0.15656728,-0.54754186,-0.5727555,-0.2623602,833.2601,792.96704,808.68134,830.4396,880.80585,-0.19207763671875,-0.01629638671875,0.99224853515625,4.5458984375,-3.3197021484375,-4.4561767578125,1,1.0,1.0,1.0,1.0,50.00
2022-11-23 20:21:49.631,0.64851326,0.4205674,0.4520791,0.7700342,0.40941504,-0.11413731,-0.12900601,0.3783789,0.5510633,0.024546416,-0.03251469,0.53109235,0.059521623,-0.044982955,-0.15527104,0.23646463,-0.15656728,-0.54754186,-0.5727555,-0.2623602,835.6777,788.93774,813.91943,823.5897,894.5055,-0.19207763671875,-0.01629638671875,0.99224853515625,4.5458984375,-3.3197021484375,-4.4561767578125,1,1.0,1.0,1.0,1.0,50.00
2022-11-23 20:21:49.631,0.64851326,0.4205674,0.4520791,0.7700342,0.40941504,-0.11413731,-0.12900601,0.3783789,0.5510633,0.024546416,-0.03251469,0.53109235,0.059521623,-0.044982955,-0.15527104,0.23646463,-0.15656728,-0.54754186,-0.5727555,-0.2623602,786.1172,784.5055,806.6667,802.23444,768.3883,-0.19207763671875,-0.01629638671875,0.99224853515625,4.5458984375,-3.3197021484375,-4.4561767578125,1,1.0,1.0,1.0,1.0,50.00
2022-11-23 20:21:49.631,0.64851326,0.4205674,0.4520791,0.7700342,0.40941504,-0.11413731,-0.12900601,0.3783789,0.5510633,0.024546416,-0.03251469,0.53109235,0.059521623,-0.044982955,-0.15527104,0.23646463,-0.15656728,-0.54754186,-0.5727555,-0.2623602,774.0293,786.9231,805.4579,809.0842,795.78754,-0.19207763671875,-0.01629638671875,0.99224853515625,4.5458984375,-3.3197021484375,-4.4561767578125,1,1.0,1.0,1.0,1.0,50.00
2022-11-23 20:21:49.631,0.64851326,0.4205674,0.4520791,0.7700342,0.40941504,-0.11413731,-0.12900601,0.3783789,0.5510633,0.024546416,-0.03251469,0.53109235,0.059521623,-0.044982955,-0.15527104,0.23646463,-0.15656728,-0.54754186,-0.5727555,-0.2623602,819.15753,788.1319,815.9341,835.6777,787.72894,-0.19207763671875,-0.01629638671875,0.99224853515625,4.5458984375,-3.3197021484375,-4.4561767578125,1,1.0,1.0,1.0,1.0,50.00
2022-11-23 20:21:49.674,0.64851326,0.4205674,0.4520791,0.7700342,0.40941504,-0.11413731,-0.12900601,0.3783789,0.5510633,0.024546416,-0.03251469,0.53109235,0.059521623,-0.044982955,-0.15527104,0.23646463,-0.15656728,-0.54754186,-0.5727555,-0.2623602,842.1245,788.93774,817.5458,838.49817,788.1319,-0.18695068359375,-0.01043701171875,1.00286865234375,7.10296630859375,-2.19818115234375,-9.428253173828125,1,1.0,1.0,1.0,1.0,50.00
2022-11-23 20:21:49.675,0.64851326,0.4205674,0.4520791,0.7700342,0.40941504,-0.11413731,-0.12900601,0.3783789,0.5510633,0.024546416,-0.03251469,0.53109235,0.059521623,-0.044982955,-0.15527104,0.23646463,-0.15656728,-0.54754186,-0.5727555,-0.2623602,814.3223,793.36993,817.1429,821.978,770.0,-0.18695068359375,-0.01043701171875,1.00286865234375,7.10296630859375,-2.19818115234375,-9.428253173828125,1,1.0,1.0,1.0,1.0,50.00
2022-11-23 20:21:49.675,0.64851326,0.4205674,0.4520791,0.7700342,0.40941504,-0.11413731,-0.12900601,0.3783789,0.5510633,0.024546416,-0.03251469,0.53109235,0.059521623,-0.044982955,-0.15527104,0.23646463,-0.15656728,-0.54754186,-0.5727555,-0.2623602,784.10254,792.1612,818.3516,807.47253,796.99634,-0.18695068359375,-0.01043701171875,1.00286865234375,7.10296630859375,-2.19818115234375,-9.428253173828125,1,1.0,1.0,1.0,1.0,50.00
2022-11-23 20:21:49.675,0.71862453,0.44679764,0.7130012,0.75563085,0.6381072,-0.09096327,0.109734155,0.3751343,0.68614143,0.024546416,0.009872023,0.5232234,0.069962926,-0.041406084,-0.1709378,0.22862767,-0.09198508,-0.5315583,-0.5586939,-0.27249202,814.7253,790.9524,819.5604,830.4396,860.2564,-0.18695068359375,-0.01043701171875,1.00286865234375,7.10296630859375,-2.19818115234375,-9.428253173828125,1,1.0,1.0,1.0,1.0,50.00
2022-11-23 20:21:49.677,0.71862453,0.44679764,0.7130012,0.75563085,0.6381072,-0.09096327,0.109734155,0.3751343,0.68614143,0.024546416,0.009872023,0.5232234,0.069962926,-0.041406084,-0.1709378,0.22862767,-0.09198508,-0.5315583,-0.5586939,-0.27249202,845.7509,790.14655,819.15753,851.79486,861.8681,-0.18695068359375,-0.01043701171875,1.00286865234375,7.10296630859375,-2.19818115234375,-9.428253173828125,1,1.0,1.0,1.0,1.0,50.00
2022-11-23 20:21:49.677,0.71862453,0.44679764,0.7130012,0.75563085,0.6381072,-0.09096327,0.109734155,0.3751343,0.68614143,0.024546416,0.009872023,0.5232234,0.069962926,-0.041406084,-0.1709378,0.22862767,-0.09198508,-0.5315583,-0.5586939,-0.27249202,817.5458,791.3553,817.9487,824.3956,839.304,-0.18695068359375,-0.01043701171875,1.00286865234375,7.10296630859375,-2.19818115234375,-9.428253173828125,1,1.0,1.0,1.0,1.0,50.00
2022-11-23 20:21:49.677,0.71862453,0.44679764,0.7130012,0.75563085,0.6381072,-0.09096327,0.109734155,0.3751343,0.68614143,0.024546416,0.009872023,0.5232234,0.069962926,-0.041406084,-0.1709378,0.22862767,-0.09198508,-0.5315583,-0.5586939,-0.27249202,783.2967,792.96704,816.7399,801.8315,811.9048,-0.18695068359375,-0.01043701171875,1.00286865234375,7.10296630859375,-2.19818115234375,-9.428253173828125,1,1.0,1.0,1.0,1.0,50.00
2022-11-23 20:21:49.677,0.71862453,0.44679764,0.7130012,0.75563085,0.6381072,-0.09096327,0.109734155,0.3751343,0.68614143,0.024546416,0.009872023,0.5232234,0.069962926,-0.041406084,-0.1709378,0.22862767,-0.09198508,-0.5315583,-0.5586939,-0.27249202,805.4579,793.7729,821.1722,819.15753,792.1612,-0.18695068359375,-0.01043701171875,1.00286865234375,7.10296630859375,-2.19818115234375,-9.428253173828125,1,1.0,1.0,1.0,1.0,50.00
2022-11-23 20:21:49.677,0.71862453,0.44679764,0.7130012,0.75563085,0.6381072,-0.09096327,0.109734155,0.3751343,0.68614143,0.024546416,0.009872023,0.5232234,0.069962926,-0.041406084,-0.1709378,0.22862767,-0.09198508,-0.5315583,-0.5586939,-0.27249202,849.7802,798.20514,817.1429,840.10986,839.304,-0.18695068359375,-0.01043701171875,1.00286865234375,7.10296630859375,-2.19818115234375,-9.428253173828125,1,1.0,1.0,1.0,1.0,50.00
2022-11-23 20:21:49.678,0.71862453,0.44679764,0.7130012,0.75563085,0.6381072,-0.09096327,0.109734155,0.3751343,0.68614143,0.024546416,0.009872023,0.5232234,0.069962926,-0.041406084,-0.1709378,0.22862767,-0.09198508,-0.5315583,-0.5586939,-0.27249202,826.0073,801.02563,811.0989,826.4103,886.8498,-0.18695068359375,-0.01043701171875,1.00286865234375,7.10296630859375,-2.19818115234375,-9.428253173828125,1,1.0,1.0,1.0,1.0,50.00
2022-11-23 20:21:49.678,0.71862453,0.44679764,0.7130012,0.75563085,0.6381072,-0.09096327,0.109734155,0.3751343,0.68614143,0.024546416,0.009872023,0.5232234,0.069962926,-0.041406084,-0.1709378,0.22862767,-0.09198508,-0.5315583,-0.5586939,-0.27249202,780.4762,800.6227,812.3077,796.99634,736.9597,-0.18695068359375,-0.01043701171875,1.00286865234375,7.10296630859375,-2.19818115234375,-9.428253173828125,1,1.0,1.0,1.0,1.0,50.00
2022-11-23 20:21:49.678,0.71862453,0.44679764,0.7130012,0.75563085,0.6381072,-0.09096327,0.109734155,0.3751343,0.68614143,0.024546416,0.009872023,0.5232234,0.069962926,-0.041406084,-0.1709378,0.22862767,-0.09198508,-0.5315583,-0.5586939,-0.27249202,784.5055,800.6227,816.337,795.78754,639.45056,-0.18695068359375,-0.01043701171875,1.00286865234375,7.10296630859375,-2.19818115234375,-9.428253173828125,1,1.0,1.0,1.0,1.0,50.00
2022-11-23 20:21:49.725,0.71862453,0.44679764,0.7130012,0.75563085,0.6381072,-0.09096327,0.109734155,0.3751343,0.68614143,0.024546416,0.009872023,0.5232234,0.069962926,-0.041406084,-0.1709378,0.22862767,-0.09198508,-0.5315583,-0.5586939,-0.27249202,821.978,802.6374,814.3223,819.9634,804.2491,-0.1678466796875,-0.0015869140625,1.01104736328125,7.588958740234375,-2.205657958984375,-9.6600341796875,1,1.0,1.0,1.0,1.0,50.00
2022-11-23 20:21:49.725,0.71862453,0.44679764,0.7130012,0.75563085,0.6381072,-0.09096327,0.109734155,0.3751343,0.68614143,0.024546416,0.009872023,0.5232234,0.069962926,-0.041406084,-0.1709378,0.22862767,-0.09198508,-0.5315583,-0.5586939,-0.27249202,814.3223,805.05493,805.8608,815.5311,911.02563,-0.1678466796875,-0.0015869140625,1.01104736328125,7.588958740234375,-2.205657958984375,-9.6600341796875,1,1.0,1.0,1.0,1.0,50.00
2022-11-23 20:21:49.725,0.71862453,0.44679764,0.7130012,0.75563085,0.6381072,-0.09096327,0.109734155,0.3751343,0.68614143,0.024546416,0.009872023,0.5232234,0.069962926,-0.041406084,-0.1709378,0.22862767,-0.09198508,-0.5315583,-0.5586939,-0.27249202,780.4762,804.2491,810.696,782.49084,684.17584,-0.1678466796875,-0.0015869140625,1.01104736328125,7.588958740234375,-2.205657958984375,-9.6600341796875,1,1.0,1.0,1.0,1.0,50.00
2022-11-23 20:21:49.726,0.71862453,0.44679764,0.7130012,0.75563085,0.6381072,-0.09096327,0.109734155,0.3751343,0.68614143,0.024546416,0.009872023,0.5232234,0.069962926,-0.041406084,-0.1709378,0.22862767,-0.09198508,-0.5315583,-0.5586939,-0.27249202,779.2674,801.4286,812.71063,783.2967,514.1392,-0.1678466796875,-0.0015869140625,1.01104736328125,7.588958740234375,-2.205657958984375,-9.6600341796875,1,1.0,1.0,1.0,1.0,50.00
2022-11-23 20:21:49.726,0.71862453,0.44679764,0.7130012,0.75563085,0.6381072,-0.09096327,0.109734155,0.3751343,0.68614143,0.024546416,0.009872023,0.5232234,0.069962926,-0.041406084,-0.1709378,0.22862767,-0.09198508,-0.5315583,-0.5586939,-0.27249202,813.1135,801.8315,809.89014,819.5604,712.381,-0.1678466796875,-0.0015869140625,1.01104736328125,7.588958740234375,-2.205657958984375,-9.6600341796875,1,1.0,1.0,1.0,1.0,50.00
