TimeStamp,Delta_TP9,Delta_AF7,Delta_AF8,Delta_TP10,Theta_TP9,Theta_AF7,Theta_AF8,Theta_TP10,Alpha_TP9,Alpha_AF7,Alpha_AF8,Alpha_TP10,Beta_TP9,Beta_AF7,Beta_AF8,Beta_TP10,Gamma_TP9,Gamma_AF7,Gamma_AF8,Gamma_TP10,RAW_TP9,RAW_AF7,RAW_AF8,RAW_TP10,AUX_RIGHT,Accelerometer_X,Accelerometer_Y,Accelerometer_Z,Gyro_X,Gyro_Y,Gyro_Z,HeadBandOn,HSI_TP9,HSI_AF7,HSI_AF8,HSI_TP10,Battery,Elements
2022-11-23 20:21:16.070,0.42981246,-0.14618394,0.10259786,0.61276644,0.5373118,-0.121505864,0.035037424,0.65822643,0.7923616,0.08564146,0.032196656,0.79921347,0.1629494,-0.05502432,-0.011152275,0.14674902,-0.25674435,-0.49357486,-0.48209953,-0.1913548,799.41394,812.71063,801.8315,799.41394,795.38464,-0.16668701171875,0.00201416015625,1.01190185546875,2.459869384765625,0.5084228515625,0.35888671875,1,1.0,1.0,1.0,1.0,50.00
2022-11-23 20:21:16.071,0.6014154,7.143278E-4,0.2539292,0.6653153,0.5011492,-0.050851163,0.06506873,0.6353207,0.7751564,0.10249008,0.04250462,0.78685814,0.17116566,-0.048418283,-0.009741396,0.13041238,-0.2190696,-0.50868726,-0.5030153,-0.21437286,771.6117,812.3077,804.65204,780.07324,587.47253,-0.16668701171875,0.00201416015625,1.01190185546875,2.459869384765625,0.5084228515625,0.35888671875,1,1.0,1.0,1.0,1.0,50.00
2022-11-23 20:21:16.073,0.6014154,7.143278E-4,0.2539292,0.6653153,0.5011492,-0.050851163,0.06506873,0.6353207,0.7751564,0.10249008,0.04250462,0.78685814,0.17116566,-0.048418283,-0.009741396,0.13041238,-0.2190696,-0.50868726,-0.5030153,-0.21437286,790.9524,807.0696,798.60803,796.1905,703.5165,-0.16668701171875,0.00201416015625,1.01190185546875,2.459869384765625,0.5084228515625,0.35888671875,1,1.0,1.0,1.0,1.0,50.00
2022-11-23 20:21:16.073,0.6014154,7.143278E-4,0.2539292,0.6653153,0.5011492,-0.050851163,0.06506873,0.6353207,0.7751564,0.10249008,0.04250462,0.78685814,0.17116566,-0.048418283,-0.009741396,0.13041238,-0.2190696,-0.50868726,-0.5030153,-0.21437286,827.2161,805.4579,795.38464,818.7546,964.61536,-0.16668701171875,0.00201416015625,1.01190185546875,2.459869384765625,0.5084228515625,0.35888671875,1,1.0,1.0,1.0,1.0,50.00
2022-11-23 20:21:16.074,0.6014154,7.143278E-4,0.2539292,0.6653153,0.5011492,-0.050851163,0.06506873,0.6353207,0.7751564,0.10249008,0.04250462,0.78685814,0.17116566,-0.048418283,-0.009741396,0.13041238,-0.2190696,-0.50868726,-0.5030153,-0.21437286,807.0696,808.2784,802.23444,803.44324,906.1905,-0.16668701171875,0.00201416015625,1.01190185546875,2.459869384765625,0.5084228515625,0.35888671875,1,1.0,1.0,1.0,1.0,50.00
2022-11-23 20:21:16.074,0.6014154,7.143278E-4,0.2539292,0.6653153,0.5011492,-0.050851163,0.06506873,0.6353207,0.7751564,0.10249008,0.04250462,0.78685814,0.17116566,-0.048418283,-0.009741396,0.13041238,-0.2190696,-0.50868726,-0.5030153,-0.21437286,759.5238,804.2491,800.6227,776.4469,689.41394,-0.16668701171875,0.00201416015625,1.01190185546875,2.459869384765625,0.5084228515625,0.35888671875,1,1.0,1.0,1.0,1.0,50.00
2022-11-23 20:21:16.074,0.6014154,7.143278E-4,0.2539292,0.6653153,0.5011492,-0.050851163,0.06506873,0.6353207,0.7751564,0.10249008,0.04250462,0.78685814,0.17116566,-0.048418283,-0.009741396,0.13041238,-0.2190696,-0.50868726,-0.5030153,-0.21437286,778.0586,803.44324,802.23444,792.96704,831.6484,-0.16668701171875,0.00201416015625,1.01190185546875,2.459869384765625,0.5084228515625,0.35888671875,1,1.0,1.0,1.0,1.0,50.00
2022-11-23 20:21:16.074,0.6014154,7.143278E-4,0.2539292,0.6653153,0.5011492,-0.050851163,0.06506873,0.6353207,0.7751564,0.10249008,0.04250462,0.78685814,0.17116566,-0.048418283,-0.009741396,0.13041238,-0.2190696,-0.50868726,-0.5030153,-0.21437286,819.15753,806.26373,804.65204,819.9634,1153.9927,-0.16668701171875,0.00201416015625,1.01190185546875,2.459869384765625,0.5084228515625,0.35888671875,1,1.0,1.0,1.0,1.0,50.00
2022-11-23 20:21:16.075,0.6014154,7.143278E-4,0.2539292,0.6653153,0.5011492,-0.050851163,0.06506873,0.6353207,0.7751564,0.10249008,0.04250462,0.78685814,0.17116566,-0.048418283,-0.009741396,0.13041238,-0.2190696,-0.50868726,-0.5030153,-0.21437286,811.9048,804.2491,804.2491,800.2198,933.1868,-0.16668701171875,0.00201416015625,1.01190185546875,2.459869384765625,0.5084228515625,0.35888671875,1,1.0,1.0,1.0,1.0,50.00
2022-11-23 20:21:16.075,0.6014154,7.143278E-4,0.2539292,0.6653153,0.5011492,-0.050851163,0.06506873,0.6353207,0.7751564,0.10249008,0.04250462,0.78685814,0.17116566,-0.048418283,-0.009741396,0.13041238,-0.2190696,-0.50868726,-0.5030153,-0.21437286,770.0,803.44324,805.8608,766.77655,615.2747,-0.16668701171875,0.00201416015625,1.01190185546875,2.459869384765625,0.5084228515625,0.35888671875,1,1.0,1.0,1.0,1.0,50.00
2022-11-23 20:21:16.075,0.6014154,7.143278E-4,0.2539292,0.6653153,0.5011492,-0.050851163,0.06506873,0.6353207,0.7751564,0.10249008,0.04250462,0.78685814,0.17116566,-0.048418283,-0.009741396,0.13041238,-0.2190696,-0.50868726,-0.5030153,-0.21437286,750.65936,802.23444,803.0403,759.5238,595.5311,-0.16668701171875,0.00201416015625,1.01190185546875,2.459869384765625,0.5084228515625,0.35888671875,1,1.0,1.0,1.0,1.0,50.00
2022-11-23 20:21:16.075,0.6014154,7.143278E-4,0.2539292,0.6653153,0.5011492,-0.050851163,0.06506873,0.6353207,0.7751564,0.10249008,0.04250462,0.78685814,0.17116566,-0.048418283,-0.009741396,0.13041238,-0.2190696,-0.50868726,-0.5030153,-0.21437286,786.52014,802.23444,801.4286,788.1319,819.15753,-0.16668701171875,0.00201416015625,1.01190185546875,2.459869384765625,0.5084228515625,0.35888671875,1,1.0,1.0,1.0,1.0,50.00
2022-11-23 20:21:16.118,0.6014154,7.143278E-4,0.2539292,0.6653153,0.5011492,-0.050851163,0.06506873,0.6353207,0.7751564,0.10249008,0.04250462,0.78685814,0.17116566,-0.048418283,-0.009741396,0.13041238,-0.2190696,-0.50868726,-0.5030153,-0.21437286,809.89014,806.26373,804.2491,794.17584,952.1245,-0.16668701171875,0.00201416015625,1.01190185546875,2.459869384765625,0.5084228515625,0.35888671875,1,1.0,1.0,1.0,1.0,50.00
2022-11-23 20:21:16.119,0.6014154,7.143278E-4,0.2539292,0.6653153,0.5011492,-0.050851163,0.06506873,0.6353207,0.7751564,0.10249008,0.04250462,0.78685814,0.17116566,-0.048418283,-0.009741396,0.13041238,-0.2190696,-0.50868726,-0.5030153,-0.21437286,775.64105,807.47253,806.26373,762.3443,740.989,-0.16668701171875,0.00201416015625,1.01190185546875,2.459869384765625,0.5084228515625,0.35888671875,1,1.0,1.0,1.0,1.0,50.00
2022-11-23 20:21:16.119,0.6014154,7.143278E-4,0.2539292,0.6653153,0.5011492,-0.050851163,0.06506873,0.6353207,0.7751564,0.10249008,0.04250462,0.78685814,0.17116566,-0.048418283,-0.009741396,0.13041238,-0.2190696,-0.50868726,-0.5030153,-0.21437286,748.24176,803.44324,803.0403,753.47986,678.93774,-0.16668701171875,0.00201416015625,1.01190185546875,2.459869384765625,0.5084228515625,0.35888671875,1,1.0,1.0,1.0,1.0,50.00
2022-11-23 20:21:16.119,0.6014154,7.143278E-4,0.2539292,0.6653153,0.5011492,-0.050851163,0.06506873,0.6353207,0.7751564,0.10249008,0.04250462,0.78685814,0.17116566,-0.048418283,-0.009741396,0.13041238,-0.2190696,-0.50868726,-0.5030153,-0.21437286,787.72894,806.26373,803.8461,783.69965,824.7985,-0.16668701171875,0.00201416015625,1.01190185546875,2.459869384765625,0.5084228515625,0.35888671875,1,1.0,1.0,1.0,1.0,50.00
2022-11-23 20:21:16.120,0.6014154,7.143278E-4,0.2539292,0.6653153,0.5011492,-0.050851163,0.06506873,0.6353207,0.7751564,0.10249008,0.04250462,0.78685814,0.17116566,-0.048418283,-0.009741396,0.13041238,-0.2190696,-0.50868726,-0.5030153,-0.21437286,820.7692,809.4872,805.8608,802.23444,948.49817,-0.16668701171875,0.00201416015625,1.01190185546875,2.459869384765625,0.5084228515625,0.35888671875,1,1.0,1.0,1.0,1.0,50.00
2022-11-23 20:21:16.120,0.6014154,7.143278E-4,0.2539292,0.6653153,0.5011492,-0.050851163,0.06506873,0.6353207,0.7751564,0.10249008,0.04250462,0.78685814,0.17116566,-0.048418283,-0.009741396,0.13041238,-0.2190696,-0.50868726,-0.5030153,-0.21437286,785.31134,803.44324,804.2491,778.0586,855.0183,-0.16668701171875,0.00201416015625,1.01190185546875,2.459869384765625,0.5084228515625,0.35888671875,1,1.0,1.0,1.0,1.0,50.00
2022-11-23 20:21:16.120,0.6014154,7.143278E-4,0.2539292,0.6653153,0.5011492,-0.050851163,0.06506873,0.6353207,0.7751564,0.10249008,0.04250462,0.78685814,0.17116566,-0.048418283,-0.009741396,0.13041238,-0.2190696,-0.50868726,-0.5030153,-0.21437286,750.2564,802.23444,803.8461,762.3443,881.2088,-0.16668701171875,0.00201416015625,1.01190185546875,2.459869384765625,0.5084228515625,0.35888671875,1,1.0,1.0,1.0,1.0,50.00
2022-11-23 20:21:16.120,0.6014154,7.143278E-4,0.2539292,0.6653153,0.5011492,-0.050851163,0.06506873,0.6353207,0.7751564,0.10249008,0.04250462,0.78685814,0.17116566,-0.048418283,-0.009741396,0.13041238,-0.2190696,-0.50868726,-0.5030153,-0.21437286,772.4176,803.0403,804.65204,792.1612,983.5531,-0.16668701171875,0.00201416015625,1.01190185546875,2.459869384765625,0.5084228515625,0.35888671875,1,1.0,1.0,1.0,1.0,50.00
2022-11-23 20:21:16.121,0.6014154,7.143278E-4,0.2539292,0.6653153,0.5011492,-0.050851163,0.06506873,0.6353207,0.7751564,0.10249008,0.04250462,0.78685814,0.17116566,-0.048418283,-0.009741396,0.13041238,-0.2190696,-0.50868726,-0.5030153,-0.21437286,809.0842,801.8315,802.6374,810.696,847.3626,-0.16668701171875,0.00201416015625,1.01190185546875,2.459869384765625,0.5084228515625,0.35888671875,1,1.0,1.0,1.0,1.0,50.00
2022-11-23 20:21:16.121,0.6014154,7.143278E-4,0.2539292,0.6653153,0.5011492,-0.050851163,0.06506873,0.6353207,0.7751564,0.10249008,0.04250462,0.78685814,0.17116566,-0.048418283,-0.009741396,0.13041238,-0.2190696,-0.50868726,-0.5030153,-0.21437286,795.38464,801.4286,802.6374,798.20514,757.1062,-0.16668701171875,0.00201416015625,1.01190185546875,2.459869384765625,0.5084228515625,0.35888671875,1,1.0,1.0,1.0,1.0,50.00
2022-11-23 20:21:16.121,0.6014154,7.143278E-4,0.2539292,0.6653153,0.5011492,-0.050851163,0.06506873,0.6353207,0.7751564,0.10249008,0.04250462,0.78685814,0.17116566,-0.048418283,-0.009741396,0.13041238,-0.2190696,-0.50868726,-0.5030153,-0.21437286,758.71796,801.8315,806.6667,781.685,633.4066,-0.16668701171875,0.00201416015625,1.01190185546875,2.459869384765625,0.5084228515625,0.35888671875,1,1.0,1.0,1.0,1.0,50.00
2022-11-23 20:21:16.122,0.6014154,7.143278E-4,0.2539292,0.6653153,0.5011492,-0.050851163,0.06506873,0.6353207,0.7751564,0.10249008,0.04250462,0.78685814,0.17116566,-0.048418283,-0.009741396,0.13041238,-0.2190696,-0.50868726,-0.5030153,-0.21437286,768.3883,803.8461,811.9048,785.7143,644.2857,-0.16668701171875,0.00201416015625,1.01190185546875,2.459869384765625,0.5084228515625,0.35888671875,1,1.0,1.0,1.0,1.0,50.00
2022-11-23 20:21:16.169,0.6014154,7.143278E-4,0.2539292,0.6653153,0.5011492,-0.050851163,0.06506873,0.6353207,0.7751564,0.10249008,0.04250462,0.78685814,0.17116566,-0.048418283,-0.009741396,0.13041238,-0.2190696,-0.50868726,-0.5030153,-0.21437286,809.89014,803.44324,809.89014,811.50183,783.2967,-0.18017578125,0.00921630859375,1.00341796875,3.72344970703125,0.8673095703125,0.710296630859375,1,1.0,1.0,1.0,1.0,50.00
2022-11-23 20:21:16.169,0.6014154,7.143278E-4,0.2539292,0.6653153,0.5011492,-0.050851163,0.06506873,0.6353207,0.7751564,0.10249008,0.04250462,0.78685814,0.17116566,-0.048418283,-0.009741396,0.13041238,-0.2190696,-0.50868726,-0.5030153,-0.21437286,814.3223,803.8461,806.6667,814.7253,823.1868,-0.18017578125,0.00921630859375,1.00341796875,3.72344970703125,0.8673095703125,0.710296630859375,1,1.0,1.0,1.0,1.0,50.00
2022-11-23 20:21:16.170,0.6014154,7.143278E-4,0.2539292,0.6653153,0.5011492,-0.050851163,0.06506873,0.6353207,0.7751564,0.10249008,0.04250462,0.78685814,0.17116566,-0.048418283,-0.009741396,0.13041238,-0.2190696,-0.50868726,-0.5030153,-0.21437286,774.43225,805.05493,803.8461,776.04395,687.3993,-0.18017578125,0.00921630859375,1.00341796875,3.72344970703125,0.8673095703125,0.710296630859375,1,1.0,1.0,1.0,1.0,50.00
2022-11-23 20:21:16.170,0.72712183,0.16174208,0.38261062,0.6976416,0.46828577,0.020404171,0.09555791,0.62496406,0.7425005,0.16914935,0.01885678,0.78098136,0.18175487,-0.04996511,-0.01605061,0.11352755,-0.18871017,-0.5245076,-0.5254938,-0.23647757,766.3736,803.44324,803.8461,773.6264,622.9304,-0.18017578125,0.00921630859375,1.00341796875,3.72344970703125,0.8673095703125,0.710296630859375,1,1.0,1.0,1.0,1.0,50.00
2022-11-23 20:21:16.171,0.72712183,0.16174208,0.38261062,0.6976416,0.46828577,0.020404171,0.09555791,0.62496406,0.7425005,0.16914935,0.01885678,0.78098136,0.18175487,-0.04996511,-0.01605061,0.11352755,-0.18871017,-0.5245076,-0.5254938,-0.23647757,810.293,805.05493,803.0403,813.1135,710.7692,-0.18017578125,0.00921630859375,1.00341796875,3.72344970703125,0.8673095703125,0.710296630859375,1,1.0,1.0,1.0,1.0,50.00
2022-11-23 20:21:16.172,0.72712183,0.16174208,0.38261062,0.6976416,0.46828577,0.020404171,0.09555791,0.62496406,0.7425005,0.16914935,0.01885678,0.78098136,0.18175487,-0.04996511,-0.01605061,0.11352755,-0.18871017,-0.5245076,-0.5254938,-0.23647757,832.0513,802.6374,799.81683,826.4103,942.4542,-0.18017578125,0.00921630859375,1.00341796875,3.72344970703125,0.8673095703125,0.710296630859375,1,1.0,1.0,1.0,1.0,50.00
2022-11-23 20:21:16.172,0.72712183,0.16174208,0.38261062,0.6976416,0.46828577,0.020404171,0.09555791,0.62496406,0.7425005,0.16914935,0.01885678,0.78098136,0.18175487,-0.04996511,-0.01605061,0.11352755,-0.18871017,-0.5245076,-0.5254938,-0.23647757,790.9524,799.81683,799.41394,790.9524,1023.8461,-0.18017578125,0.00921630859375,1.00341796875,3.72344970703125,0.8673095703125,0.710296630859375,1,1.0,1.0,1.0,1.0,50.00
2022-11-23 20:21:16.172,0.72712183,0.16174208,0.38261062,0.6976416,0.46828577,0.020404171,0.09555791,0.62496406,0.7425005,0.16914935,0.01885678,0.78098136,0.18175487,-0.04996511,-0.01605061,0.11352755,-0.18871017,-0.5245076,-0.5254938,-0.23647757,759.5238,801.02563,798.20514,757.9121,757.9121,-0.18017578125,0.00921630859375,1.00341796875,3.72344970703125,0.8673095703125,0.710296630859375,1,1.0,1.0,1.0,1.0,50.00
2022-11-23 20:21:16.172,0.72712183,0.16174208,0.38261062,0.6976416,0.46828577,0.020404171,0.09555791,0.62496406,0.7425005,0.16914935,0.01885678,0.78098136,0.18175487,-0.04996511,-0.01605061,0.11352755,-0.18871017,-0.5245076,-0.5254938,-0.23647757,801.02563,809.4872,801.4286,794.9817,689.011,-0.18017578125,0.00921630859375,1.00341796875,3.72344970703125,0.8673095703125,0.710296630859375,1,1.0,1.0,1.0,1.0,50.00
2022-11-23 20:21:16.173,0.72712183,0.16174208,0.38261062,0.6976416,0.46828577,0.020404171,0.09555791,0.62496406,0.7425005,0.16914935,0.01885678,0.78098136,0.18175487,-0.04996511,-0.01605061,0.11352755,-0.18871017,-0.5245076,-0.5254938,-0.23647757,836.8865,813.1135,804.65204,832.0513,912.6374,-0.18017578125,0.00921630859375,1.00341796875,3.72344970703125,0.8673095703125,0.710296630859375,1,1.0,1.0,1.0,1.0,50.00
2022-11-23 20:21:16.173,0.72712183,0.16174208,0.38261062,0.6976416,0.46828577,0.020404171,0.09555791,0.62496406,0.7425005,0.16914935,0.01885678,0.78098136,0.18175487,-0.04996511,-0.01605061,0.11352755,-0.18871017,-0.5245076,-0.5254938,-0.23647757,800.2198,803.8461,801.4286,799.011,994.43225,-0.18017578125,0.00921630859375,1.00341796875,3.72344970703125,0.8673095703125,0.710296630859375,1,1.0,1.0,1.0,1.0,50.00
2022-11-23 20:21:16.173,0.72712183,0.16174208,0.38261062,0.6976416,0.46828577,0.020404171,0.09555791,0.62496406,0.7425005,0.16914935,0.01885678,0.78098136,0.18175487,-0.04996511,-0.01605061,0.11352755,-0.18871017,-0.5245076,-0.5254938,-0.23647757,761.9414,803.44324,804.65204,774.43225,701.50183,-0.18017578125,0.00921630859375,1.00341796875,3.72344970703125,0.8673095703125,0.710296630859375,1,1.0,1.0,1.0,1.0,50.00
2022-11-23 20:21:16.218,0.72712183,0.16174208,0.38261062,0.6976416,0.46828577,0.020404171,0.09555791,0.62496406,0.7425005,0.16914935,0.01885678,0.78098136,0.18175487,-0.04996511,-0.01605061,0.11352755,-0.18871017,-0.5245076,-0.5254938,-0.23647757,784.90845,806.6667,806.6667,799.81683,638.24176,-0.19659423828125,-0.0013427734375,1.00634765625,3.12530517578125,1.472930908203125,-1.03179931640625,1,1.0,1.0,1.0,1.0,50.00
2022-11-23 20:21:16.219,0.72712183,0.16174208,0.38261062,0.6976416,0.46828577,0.020404171,0.09555791,0.62496406,0.7425005,0.16914935,0.01885678,0.78098136,0.18175487,-0.04996511,-0.01605061,0.11352755,-0.18871017,-0.5245076,-0.5254938,-0.23647757,826.0073,801.8315,801.02563,821.978,873.5531,-0.19659423828125,-0.0013427734375,1.00634765625,3.12530517578125,1.472930908203125,-1.03179931640625,1,1.0,1.0,1.0,1.0,50.00
2022-11-23 20:21:16.219,0.72712183,0.16174208,0.38261062,0.6976416,0.46828577,0.020404171,0.09555791,0.62496406,0.7425005,0.16914935,0.01885678,0.78098136,0.18175487,-0.04996511,-0.01605061,0.11352755,-0.18871017,-0.5245076,-0.5254938,-0.23647757,812.71063,805.8608,802.23444,809.89014,877.1795,-0.19659423828125,-0.0013427734375,1.00634765625,3.12530517578125,1.472930908203125,-1.03179931640625,1,1.0,1.0,1.0,1.0,50.00
2022-11-23 20:21:16.219,0.72712183,0.16174208,0.38261062,0.6976416,0.46828577,0.020404171,0.09555791,0.62496406,0.7425005,0.16914935,0.01885678,0.78098136,0.18175487,-0.04996511,-0.01605061,0.11352755,-0.18871017,-0.5245076,-0.5254938,-0.23647757,771.2088,809.4872,806.26373,776.04395,699.0842,-0.19659423828125,-0.0013427734375,1.00634765625,3.12530517578125,1.472930908203125,-1.03179931640625,1,1.0,1.0,1.0,1.0,50.00
2022-11-23 20:21:16.219,0.72712183,0.16174208,0.38261062,0.6976416,0.46828577,0.020404171,0.09555791,0.62496406,0.7425005,0.16914935,0.01885678,0.78098136,0.18175487,-0.04996511,-0.01605061,0.11352755,-0.18871017,-0.5245076,-0.5254938,-0.23647757,778.86444,804.65204,809.4872,784.90845,682.1612,-0.19659423828125,-0.0013427734375,1.00634765625,3.12530517578125,1.472930908203125,-1.03179931640625,1,1.0,1.0,1.0,1.0,50.00
2022-11-23 20:21:16.220,0.72712183,0.16174208,0.38261062,0.6976416,0.46828577,0.020404171,0.09555791,0.62496406,0.7425005,0.16914935,0.01885678,0.78098136,0.18175487,-0.04996511,-0.01605061,0.11352755,-0.18871017,-0.5245076,-0.5254938,-0.23647757,824.3956,806.26373,811.9048,823.1868,895.31134,-0.19659423828125,-0.0013427734375,1.00634765625,3.12530517578125,1.472930908203125,-1.03179931640625,1,1.0,1.0,1.0,1.0,50.00
2022-11-23 20:21:16.220,0.72712183,0.16174208,0.38261062,0.6976416,0.46828577,0.020404171,0.09555791,0.62496406,0.7425005,0.16914935,0.01885678,0.78098136,0.18175487,-0.04996511,-0.01605061,0.11352755,-0.18871017,-0.5245076,-0.5254938,-0.23647757,826.0073,806.6667,813.1135,821.5751,1096.3737,-0.19659423828125,-0.0013427734375,1.00634765625,3.12530517578125,1.472930908203125,-1.03179931640625,1,1.0,1.0,1.0,1.0,50.00
2022-11-23 20:21:16.220,0.72712183,0.16174208,0.38261062,0.6976416,0.46828577,0.020404171,0.09555791,0.62496406,0.7425005,0.16914935,0.01885678,0.78098136,0.18175487,-0.04996511,-0.01605061,0.11352755,-0.18871017,-0.5245076,-0.5254938,-0.23647757,779.2674,807.47253,811.9048,796.1905,934.3956,-0.19659423828125,-0.0013427734375,1.00634765625,3.12530517578125,1.472930908203125,-1.03179931640625,1,1.0,1.0,1.0,1.0,50.00
2022-11-23 20:21:16.220,0.72712183,0.16174208,0.38261062,0.6976416,0.46828577,0.020404171,0.09555791,0.62496406,0.7425005,0.16914935,0.01885678,0.78098136,0.18175487,-0.04996511,-0.01605061,0.11352755,-0.18871017,-0.5245076,-0.5254938,-0.23647757,767.5824,807.8755,809.4872,792.1612,741.39197,-0.19659423828125,-0.0013427734375,1.00634765625,3.12530517578125,1.472930908203125,-1.03179931640625,1,1.0,1.0,1.0,1.0,50.00
2022-11-23 20:21:16.220,0.72712183,0.16174208,0.38261062,0.6976416,0.46828577,0.020404171,0.09555791,0.62496406,0.7425005,0.16914935,0.01885678,0.78098136,0.18175487,-0.04996511,-0.01605061,0.11352755,-0.18871017,-0.5245076,-0.5254938,-0.23647757,803.8461,806.26373,808.2784,818.3516,1057.6923,-0.19659423828125,-0.0013427734375,1.00634765625,3.12530517578125,1.472930908203125,-1.03179931640625,1,1.0,1.0,1.0,1.0,50.00
2022-11-23 20:21:16.221,0.72712183,0.16174208,0.38261062,0.6976416,0.46828577,0.020404171,0.09555791,0.62496406,0.7425005,0.16914935,0.01885678,0.78098136,0.18175487,-0.04996511,-0.01605061,0.11352755,-0.18871017,-0.5245076,-0.5254938,-0.23647757,819.5604,803.0403,804.2491,828.022,1172.9304,-0.19659423828125,-0.0013427734375,1.00634765625,3.12530517578125,1.472930908203125,-1.03179931640625,1,1.0,1.0,1.0,1.0,50.00
2022-11-23 20:21:16.221,0.72712183,0.16174208,0.38261062,0.6976416,0.46828577,0.020404171,0.09555791,0.62496406,0.7425005,0.16914935,0.01885678,0.78098136,0.18175487,-0.04996511,-0.01605061,0.11352755,-0.18871017,-0.5245076,-0.5254938,-0.23647757,780.4762,801.8315,802.6374,796.5934,709.9634,-0.19659423828125,-0.0013427734375,1.00634765625,3.12530517578125,1.472930908203125,-1.03179931640625,1,1.0,1.0,1.0,1.0,50.00
2022-11-23 20:21:16.244,0.72712183,0.16174208,0.38261062,0.6976416,0.46828577,0.020404171,0.09555791,0.62496406,0.7425005,0.16914935,0.01885678,0.78098136,0.18175487,-0.04996511,-0.01605061,0.11352755,-0.18871017,-0.5245076,-0.5254938,-0.23647757,754.68866,803.8461,801.02563,770.80585,528.24176,-0.162841796875,0.005859375,1.0062255859375,4.007568359375,-1.33087158203125,-2.579498291015625,1,1.0,1.0,1.0,1.0,50.00
2022-11-23 20:21:16.244,0.72712183,0.16174208,0.38261062,0.6976416,0.46828577,0.020404171,0.09555791,0.62496406,0.7425005,0.16914935,0.01885678,0.78098136,0.18175487,-0.04996511,-0.01605061,0.11352755,-0.18871017,-0.5245076,-0.5254938,-0.23647757,785.31134,801.02563,800.2198,790.14655,672.0879,-0.162841796875,0.005859375,1.0062255859375,4.007568359375,-1.33087158203125,-2.579498291015625,1,1.0,1.0,1.0,1.0,50.00
2022-11-23 20:21:16.244,0.72712183,0.16174208,0.38261062,0.6976416,0.46828577,0.020404171,0.09555791,0.62496406,0.7425005,0.16914935,0.01885678,0.78098136,0.18175487,-0.04996511,-0.01605061,0.11352755,-0.18871017,-0.5245076,-0.5254938,-0.23647757,812.3077,797.3993,798.20514,809.89014,834.87177,-0.162841796875,0.005859375,1.0062255859375,4.007568359375,-1.33087158203125,-2.579498291015625,1,1.0,1.0,1.0,1.0,50.00
2022-11-23 20:21:16.245,0.72712183,0.16174208,0.38261062,0.6976416,0.46828577,0.020404171,0.09555791,0.62496406,0.7425005,0.16914935,0.01885678,0.78098136,0.18175487,-0.04996511,-0.01605061,0.11352755,-0.18871017,-0.5245076,-0.5254938,-0.23647757,796.5934,798.60803,800.2198,786.9231,760.32965,-0.162841796875,0.005859375,1.0062255859375,4.007568359375,-1.33087158203125,-2.579498291015625,1,1.0,1.0,1.0,1.0,50.00
2022-11-23 20:21:16.245,0.72712183,0.16174208,0.38261062,0.6976416,0.46828577,0.020404171,0.09555791,0.62496406,0.7425005,0.16914935,0.01885678,0.78098136,0.18175487,-0.04996511,-0.01605061,0.11352755,-0.18871017,-0.5245076,-0.5254938,-0.23647757,769.19415,800.6227,805.8608,777.25275,597.1429,-0.162841796875,0.005859375,1.0062255859375,4.007568359375,-1.33087158203125,-2.579498291015625,1,1.0,1.0,1.0,1.0,50.00
2022-11-23 20:21:16.245,0.80295473,0.2988045,0.490607,0.7151983,0.46444663,0.08350964,0.11559256,0.64705235,0.7187717,0.18660568,0.059039492,0.85039574,0.19086406,-0.060708117,-0.03005933,0.100981824,-0.17119858,-0.54391736,-0.5456119,-0.24986477,784.10254,800.2198,804.2491,799.41394,701.50183,-0.162841796875,0.005859375,1.0062255859375,4.007568359375,-1.33087158203125,-2.579498291015625,1,1.0,1.0,1.0,1.0,50.00
2022-11-23 20:21:16.246,0.80295473,0.2988045,0.490607,0.7151983,0.46444663,0.08350964,0.11559256,0.64705235,0.7187717,0.18660568,0.059039492,0.85039574,0.19086406,-0.060708117,-0.03005933,0.100981824,-0.17119858,-0.54391736,-0.5456119,-0.24986477,830.0366,807.0696,808.68134,825.6044,879.59705,-0.162841796875,0.005859375,1.0062255859375,4.007568359375,-1.33087158203125,-2.579498291015625,1,1.0,1.0,1.0,1.0,50.00
2022-11-23 20:21:16.246,0.80295473,0.2988045,0.490607,0.7151983,0.46444663,0.08350964,0.11559256,0.64705235,0.7187717,0.18660568,0.059039492,0.85039574,0.19086406,-0.060708117,-0.03005933,0.100981824,-0.17119858,-0.54391736,-0.5456119,-0.24986477,823.5897,812.3077,809.4872,816.337,821.5751,-0.162841796875,0.005859375,1.0062255859375,4.007568359375,-1.33087158203125,-2.579498291015625,1,1.0,1.0,1.0,1.0,50.00
2022-11-23 20:21:16.247,0.80295473,0.2988045,0.490607,0.7151983,0.46444663,0.08350964,0.11559256,0.64705235,0.7187717,0.18660568,0.059039492,0.85039574,0.19086406,-0.060708117,-0.03005933,0.100981824,-0.17119858,-0.54391736,-0.5456119,-0.24986477,781.685,808.2784,804.2491,793.7729,744.61536,-0.162841796875,0.005859375,1.0062255859375,4.007568359375,-1.33087158203125,-2.579498291015625,1,1.0,1.0,1.0,1.0,50.00
2022-11-23 20:21:16.247,0.80295473,0.2988045,0.490607,0.7151983,0.46444663,0.08350964,0.11559256,0.64705235,0.7187717,0.18660568,0.059039492,0.85039574,0.19086406,-0.060708117,-0.03005933,0.100981824,-0.17119858,-0.54391736,-0.5456119,-0.24986477,784.5055,805.8608,808.2784,796.99634,848.1685,-0.162841796875,0.005859375,1.0062255859375,4.007568359375,-1.33087158203125,-2.579498291015625,1,1.0,1.0,1.0,1.0,50.00
2022-11-23 20:21:16.247,0.80295473,0.2988045,0.490607,0.7151983,0.46444663,0.08350964,0.11559256,0.64705235,0.7187717,0.18660568,0.059039492,0.85039574,0.19086406,-0.060708117,-0.03005933,0.100981824,-0.17119858,-0.54391736,-0.5456119,-0.24986477,821.5751,809.4872,810.696,818.7546,808.2784,-0.162841796875,0.005859375,1.0062255859375,4.007568359375,-1.33087158203125,-2.579498291015625,1,1.0,1.0,1.0,1.0,50.00
2022-11-23 20:21:16.247,0.80295473,0.2988045,0.490607,0.7151983,0.46444663,0.08350964,0.11559256,0.64705235,0.7187717,0.18660568,0.059039492,0.85039574,0.19086406,-0.060708117,-0.03005933,0.100981824,-0.17119858,-0.54391736,-0.5456119,-0.24986477,831.6484,809.4872,803.44324,819.9634,788.93774,-0.162841796875,0.005859375,1.0062255859375,4.007568359375,-1.33087158203125,-2.579498291015625,1,1.0,1.0,1.0,1.0,50.00
2022-11-23 20:21:16.293,0.80295473,0.2988045,0.490607,0.7151983,0.46444663,0.08350964,0.11559256,0.64705235,0.7187717,0.18660568,0.059039492,0.85039574,0.19086406,-0.060708117,-0.03005933,0.100981824,-0.17119858,-0.54391736,-0.5456119,-0.24986477,795.38464,806.26373,799.011,790.54944,802.23444,-0.156005859375,0.021484375,1.00738525390625,3.99261474609375,-1.48040771484375,-0.059814453125,1,1.0,1.0,1.0,1.0,50.00
2022-11-23 20:21:16.294,0.80295473,0.2988045,0.490607,0.7151983,0.46444663,0.08350964,0.11559256,0.64705235,0.7187717,0.18660568,0.059039492,0.85039574,0.19086406,-0.060708117,-0.03005933,0.100981824,-0.17119858,-0.54391736,-0.5456119,-0.24986477,768.7912,806.26373,799.41394,786.9231,655.9707,-0.156005859375,0.021484375,1.00738525390625,3.99261474609375,-1.48040771484375,-0.059814453125,1,1.0,1.0,1.0,1.0,50.00
2022-11-23 20:21:16.294,0.80295473,0.2988045,0.490607,0.7151983,0.46444663,0.08350964,0.11559256,0.64705235,0.7187717,0.18660568,0.059039492,0.85039574,0.19086406,-0.060708117,-0.03005933,0.100981824,-0.17119858,-0.54391736,-0.5456119,-0.24986477,808.2784,808.2784,799.81683,814.3223,718.8278,-0.156005859375,0.021484375,1.00738525390625,3.99261474609375,-1.48040771484375,-0.059814453125,1,1.0,1.0,1.0,1.0,50.00
2022-11-23 20:21:16.294,0.80295473,0.2988045,0.490607,0.7151983,0.46444663,0.08350964,0.11559256,0.64705235,0.7187717,0.18660568,0.059039492,0.85039574,0.19086406,-0.060708117,-0.03005933,0.100981824,-0.17119858,-0.54391736,-0.5456119,-0.24986477,846.1539,811.0989,799.81683,832.0513,873.1502,-0.156005859375,0.021484375,1.00738525390625,3.99261474609375,-1.48040771484375,-0.059814453125,1,1.0,1.0,1.0,1.0,50.00
2022-11-23 20:21:16.295,0.80295473,0.2988045,0.490607,0.7151983,0.46444663,0.08350964,0.11559256,0.64705235,0.7187717,0.18660568,0.059039492,0.85039574,0.19086406,-0.060708117,-0.03005933,0.100981824,-0.17119858,-0.54391736,-0.5456119,-0.24986477,809.4872,809.0842,800.2198,805.8608,786.52014,-0.156005859375,0.021484375,1.00738525390625,3.99261474609375,-1.48040771484375,-0.059814453125,1,1.0,1.0,1.0,1.0,50.00
2022-11-23 20:21:16.295,0.80295473,0.2988045,0.490607,0.7151983,0.46444663,0.08350964,0.11559256,0.64705235,0.7187717,0.18660568,0.059039492,0.85039574,0.19086406,-0.060708117,-0.03005933,0.100981824,-0.17119858,-0.54391736,-0.5456119,-0.24986477,781.28204,811.9048,801.02563,790.14655,714.3956,-0.156005859375,0.021484375,1.00738525390625,3.99261474609375,-1.48040771484375,-0.059814453125,1,1.0,1.0,1.0,1.0,50.00
2022-11-23 20:21:16.295,0.80295473,0.2988045,0.490607,0.7151983,0.46444663,0.08350964,0.11559256,0.64705235,0.7187717,0.18660568,0.059039492,0.85039574,0.19086406,-0.060708117,-0.03005933,0.100981824,-0.17119858,-0.54391736,-0.5456119,-0.24986477,813.91943,815.9341,801.02563,815.9341,788.5348,-0.156005859375,0.021484375,1.00738525390625,3.99261474609375,-1.48040771484375,-0.059814453125,1,1.0,1.0,1.0,1.0,50.00
2022-11-23 20:21:16.295,0.80295473,0.2988045,0.490607,0.7151983,0.46444663,0.08350964,0.11559256,0.64705235,0.7187717,0.18660568,0.059039492,0.85039574,0.19086406,-0.060708117,-0.03005933,0.100981824,-0.17119858,-0.54391736,-0.5456119,-0.24986477,847.76556,815.5311,798.60803,828.4249,857.8388,-0.156005859375,0.021484375,1.00738525390625,3.99261474609375,-1.48040771484375,-0.059814453125,1,1.0,1.0,1.0,1.0,50.00
2022-11-23 20:21:16.295,0.80295473,0.2988045,0.490607,0.7151983,0.46444663,0.08350964,0.11559256,0.64705235,0.7187717,0.18660568,0.059039492,0.85039574,0.19086406,-0.060708117,-0.03005933,0.100981824,-0.17119858,-0.54391736,-0.5456119,-0.24986477,822.381,813.91943,799.41394,821.1722,907.3993,-0.156005859375,0.021484375,1.00738525390625,3.99261474609375,-1.48040771484375,-0.059814453125,1,1.0,1.0,1.0,1.0,50.00
2022-11-23 20:21:16.296,0.80295473,0.2988045,0.490607,0.7151983,0.46444663,0.08350964,0.11559256,0.64705235,0.7187717,0.18660568,0.059039492,0.85039574,0.19086406,-0.060708117,-0.03005933,0.100981824,-0.17119858,-0.54391736,-0.5456119,-0.24986477,781.28204,813.5165,798.20514,799.011,839.707,-0.156005859375,0.021484375,1.00738525390625,3.99261474609375,-1.48040771484375,-0.059814453125,1,1.0,1.0,1.0,1.0,50.00
2022-11-23 20:21:16.296,0.80295473,0.2988045,0.490607,0.7151983,0.46444663,0.08350964,0.11559256,0.64705235,0.7187717,0.18660568,0.059039492,0.85039574,0.19086406,-0.060708117,-0.03005933,0.100981824,-0.17119858,-0.54391736,-0.5456119,-0.24986477,795.38464,815.5311,798.20514,813.5165,672.8938,-0.156005859375,0.021484375,1.00738525390625,3.99261474609375,-1.48040771484375,-0.059814453125,1,1.0,1.0,1.0,1.0,50.00
2022-11-23 20:21:16.296,0.80295473,0.2988045,0.490607,0.7151983,0.46444663,0.08350964,0.11559256,0.64705235,0.7187717,0.18660568,0.059039492,0.85039574,0.19086406,-0.060708117,-0.03005933,0.100981824,-0.17119858,-0.54391736,-0.5456119,-0.24986477,833.2601,815.5311,798.60803,841.7216,854.21246,-0.156005859375,0.021484375,1.00738525390625,3.99261474609375,-1.48040771484375,-0.059814453125,1,1.0,1.0,1.0,1.0,50.00
2022-11-23 20:21:16.344,0.80295473,0.2988045,0.490607,0.7151983,0.46444663,0.08350964,0.11559256,0.64705235,0.7187717,0.18660568,0.059039492,0.85039574,0.19086406,-0.060708117,-0.03005933,0.100981824,-0.17119858,-0.54391736,-0.5456119,-0.24986477,826.4103,808.68134,795.38464,820.7692,863.8828,-0.156005859375,0.021484375,1.00738525390625,3.99261474609375,-1.48040771484375,-0.059814453125,1,1.0,1.0,1.0,1.0,50.00
2022-11-23 20:21:16.344,0.80295473,0.2988045,0.490607,0.7151983,0.46444663,0.08350964,0.11559256,0.64705235,0.7187717,0.18660568,0.059039492,0.85039574,0.19086406,-0.060708117,-0.03005933,0.100981824,-0.17119858,-0.54391736,-0.5456119,-0.24986477,796.1905,803.0403,797.8022,796.5934,647.1062,-0.156005859375,0.021484375,1.00738525390625,3.99261474609375,-1.48040771484375,-0.059814453125,1,1.0,1.0,1.0,1.0,50.00
2022-11-23 20:21:16.345,0.80295473,0.2988045,0.490607,0.7151983,0.46444663,0.08350964,0.11559256,0.64705235,0.7187717,0.18660568,0.059039492,0.85039574,0.19086406,-0.060708117,-0.03005933,0.100981824,-0.17119858,-0.54391736,-0.5456119,-0.24986477,796.99634,806.6667,794.17584,790.14655,587.47253,-0.156005859375,0.021484375,1.00738525390625,3.99261474609375,-1.48040771484375,-0.059814453125,1,1.0,1.0,1.0,1.0,50.00
2022-11-23 20:21:16.345,0.80295473,0.2988045,0.490607,0.7151983,0.46444663,0.08350964,0.11559256,0.64705235,0.7187717,0.18660568,0.059039492,0.85039574,0.19086406,-0.060708117,-0.03005933,0.100981824,-0.17119858,-0.54391736,-0.5456119,-0.24986477,826.0073,810.696,790.54944,807.8755,732.1245,-0.156005859375,0.021484375,1.00738525390625,3.99261474609375,-1.48040771484375,-0.059814453125,1,1.0,1.0,1.0,1.0,50.00
2022-11-23 20:21:16.345,0.80295473,0.2988045,0.490607,0.7151983,0.46444663,0.08350964,0.11559256,0.64705235,0.7187717,0.18660568,0.059039492,0.85039574,0.19086406,-0.060708117,-0.03005933,0.100981824,-0.17119858,-0.54391736,-0.5456119,-0.24986477,842.52747,813.91943,792.5641,827.619,895.7143,-0.156005859375,0.021484375,1.00738525390625,3.99261474609375,-1.48040771484375,-0.059814453125,1,1.0,1.0,1.0,1.0,50.00
2022-11-23 20:21:16.345,0.80295473,0.2988045,0.490607,0.7151983,0.46444663,0.08350964,0.11559256,0.64705235,0.7187717,0.18660568,0.059039492,0.85039574,0.19086406,-0.060708117,-0.03005933,0.100981824,-0.17119858,-0.54391736,-0.5456119,-0.24986477,808.2784,818.3516,790.14655,794.17584,796.99634,-0.156005859375,0.021484375,1.00738525390625,3.99261474609375,-1.48040771484375,-0.059814453125,1,1.0,1.0,1.0,1.0,50.00
2022-11-23 20:21:16.346,0.80295473,0.2988045,0.490607,0.7151983,0.46444663,0.08350964,0.11559256,0.64705235,0.7187717,0.18660568,0.059039492,0.85039574,0.19086406,-0.060708117,-0.03005933,0.100981824,-0.17119858,-0.54391736,-0.5456119,-0.24986477,774.0293,818.3516,786.52014,763.1502,632.6007,-0.156005859375,0.021484375,1.00738525390625,3.99261474609375,-1.48040771484375,-0.059814453125,1,1.0,1.0,1.0,1.0,50.00
2022-11-23 20:21:16.346,0.84971917,0.39285147,0.5728224,0.73343354,0.5034433,0.1381205,0.122401,0.69834375,0.835231,0.21223468,0.10749523,0.9517821,0.19551516,-0.07676037,-0.049560882,0.099472776,-0.16309294,-0.5695454,-0.56063163,-0.2541829,803.44324,815.5311,781.685,786.52014,799.41394,-0.156005859375,0.021484375,1.00738525390625,3.99261474609375,-1.48040771484375,-0.059814453125,1,1.0,1.0,1.0,1.0,50.00
2022-11-23 20:21:16.347,0.84971917,0.39285147,0.5728224,0.73343354,0.5034433,0.1381205,0.122401,0.69834375,0.835231,0.21223468,0.10749523,0.9517821,0.19551516,-0.07676037,-0.049560882,0.099472776,-0.16309294,-0.5695454,-0.56063163,-0.2541829,832.8571,819.15753,780.4762,806.6667,1061.7216,-0.156005859375,0.021484375,1.00738525390625,3.99261474609375,-1.48040771484375,-0.059814453125,1,1.0,1.0,1.0,1.0,50.00
2022-11-23 20:21:16.347,0.84971917,0.39285147,0.5728224,0.73343354,0.5034433,0.1381205,0.122401,0.69834375,0.835231,0.21223468,0.10749523,0.9517821,0.19551516,-0.07676037,-0.049560882,0.099472776,-0.16309294,-0.5695454,-0.56063163,-0.2541829,795.78754,823.9927,784.90845,778.46155,864.68866,-0.156005859375,0.021484375,1.00738525390625,3.99261474609375,-1.48040771484375,-0.059814453125,1,1.0,1.0,1.0,1.0,50.00
2022-11-23 20:21:16.348,0.84971917,0.39285147,0.5728224,0.73343354,0.5034433,0.1381205,0.122401,0.69834375,0.835231,0.21223468,0.10749523,0.9517821,0.19551516,-0.07676037,-0.049560882,0.099472776,-0.16309294,-0.5695454,-0.56063163,-0.2541829,769.19415,821.5751,783.69965,758.71796,628.97437,-0.156005859375,0.021484375,1.00738525390625,3.99261474609375,-1.48040771484375,-0.059814453125,1,1.0,1.0,1.0,1.0,50.00
2022-11-23 20:21:16.348,0.84971917,0.39285147,0.5728224,0.73343354,0.5034433,0.1381205,0.122401,0.69834375,0.835231,0.21223468,0.10749523,0.9517821,0.19551516,-0.07676037,-0.049560882,0.099472776,-0.16309294,-0.5695454,-0.56063163,-0.2541829,788.93774,823.5897,781.28204,775.2381,673.69965,-0.156005859375,0.021484375,1.00738525390625,3.99261474609375,-1.48040771484375,-0.059814453125,1,1.0,1.0,1.0,1.0,50.00
2022-11-23 20:21:16.394,0.84971917,0.39285147,0.5728224,0.73343354,0.5034433,0.1381205,0.122401,0.69834375,0.835231,0.21223468,0.10749523,0.9517821,0.19551516,-0.07676037,-0.049560882,0.099472776,-0.16309294,-0.5695454,-0.56063163,-0.2541829,811.0989,828.8278,788.1319,794.9817,825.6044,-0.1849365234375,0.012939453125,1.0,2.91595458984375,2.97576904296875,1.517791748046875,1,1.0,1.0,1.0,1.0,50.00
2022-11-23 20:21:16.394,0.84971917,0.39285147,0.5728224,0.73343354,0.5034433,0.1381205,0.122401,0.69834375,0.835231,0.21223468,0.10749523,0.9517821,0.19551516,-0.07676037,-0.049560882,0.099472776,-0.16309294,-0.5695454,-0.56063163,-0.2541829,792.1612,830.0366,788.93774,778.86444,817.1429,-0.1849365234375,0.012939453125,1.0,2.91595458984375,2.97576904296875,1.517791748046875,1,1.0,1.0,1.0,1.0,50.00
2022-11-23 20:21:16.395,0.84971917,0.39285147,0.5728224,0.73343354,0.5034433,0.1381205,0.122401,0.69834375,0.835231,0.21223468,0.10749523,0.9517821,0.19551516,-0.07676037,-0.049560882,0.099472776,-0.16309294,-0.5695454,-0.56063163,-0.2541829,755.89746,826.0073,782.0879,753.8828,657.98535,-0.1849365234375,0.012939453125,1.0,2.91595458984375,2.97576904296875,1.517791748046875,1,1.0,1.0,1.0,1.0,50.00
2022-11-23 20:21:16.395,0.84971917,0.39285147,0.5728224,0.73343354,0.5034433,0.1381205,0.122401,0.69834375,0.835231,0.21223468,0.10749523,0.9517821,0.19551516,-0.07676037,-0.049560882,0.099472776,-0.16309294,-0.5695454,-0.56063163,-0.2541829,765.9707,824.7985,780.07324,760.7326,672.0879,-0.1849365234375,0.012939453125,1.0,2.91595458984375,2.97576904296875,1.517791748046875,1,1.0,1.0,1.0,1.0,50.00
2022-11-23 20:21:16.395,0.84971917,0.39285147,0.5728224,0.73343354,0.5034433,0.1381205,0.122401,0.69834375,0.835231,0.21223468,0.10749523,0.9517821,0.19551516,-0.07676037,-0.049560882,0.099472776,-0.16309294,-0.5695454,-0.56063163,-0.2541829,800.6227,830.4396,783.2967,777.25275,813.91943,-0.1849365234375,0.012939453125,1.0,2.91595458984375,2.97576904296875,1.517791748046875,1,1.0,1.0,1.0,1.0,50.00
2022-11-23 20:21:16.396,0.84971917,0.39285147,0.5728224,0.73343354,0.5034433,0.1381205,0.122401,0.69834375,0.835231,0.21223468,0.10749523,0.9517821,0.19551516,-0.07676037,-0.049560882,0.099472776,-0.16309294,-0.5695454,-0.56063163,-0.2541829,798.60803,832.8571,780.07324,774.83514,894.5055,-0.1849365234375,0.012939453125,1.0,2.91595458984375,2.97576904296875,1.517791748046875,1,1.0,1.0,1.0,1.0,50.00
2022-11-23 20:21:16.396,0.84971917,0.39285147,0.5728224,0.73343354,0.5034433,0.1381205,0.122401,0.69834375,0.835231,0.21223468,0.10749523,0.9517821,0.19551516,-0.07676037,-0.049560882,0.099472776,-0.16309294,-0.5695454,-0.56063163,-0.2541829,761.13556,834.87177,775.64105,749.45056,726.08057,-0.1849365234375,0.012939453125,1.0,2.91595458984375,2.97576904296875,1.517791748046875,1,1.0,1.0,1.0,1.0,50.00
2022-11-23 20:21:16.396,0.84971917,0.39285147,0.5728224,0.73343354,0.5034433,0.1381205,0.122401,0.69834375,0.835231,0.21223468,0.10749523,0.9517821,0.19551516,-0.07676037,-0.049560882,0.099472776,-0.16309294,-0.5695454,-0.56063163,-0.2541829,747.4359,839.707,773.6264,736.9597,821.978,-0.1849365234375,0.012939453125,1.0,2.91595458984375,2.97576904296875,1.517791748046875,1,1.0,1.0,1.0,1.0,50.00
2022-11-23 20:21:16.396,0.84971917,0.39285147,0.5728224,0.73343354,0.5034433,0.1381205,0.122401,0.69834375,0.835231,0.21223468,0.10749523,0.9517821,0.19551516,-0.07676037,-0.049560882,0.099472776,-0.16309294,-0.5695454,-0.56063163,-0.2541829,777.25275,840.9158,772.01465,763.1502,1121.7583,-0.1849365234375,0.012939453125,1.0,2.91595458984375,2.97576904296875,1.517791748046875,1,1.0,1.0,1.0,1.0,50.00
2022-11-23 20:21:16.397,0.84971917,0.39285147,0.5728224,0.73343354,0.5034433,0.1381205,0.122401,0.69834375,0.835231,0.21223468,0.10749523,0.9517821,0.19551516,-0.07676037,-0.049560882,0.099472776,-0.16309294,-0.5695454,-0.56063163,-0.2541829,801.4286,842.1245,767.98535,780.4762,902.96704,-0.1849365234375,0.012939453125,1.0,2.91595458984375,2.97576904296875,1.517791748046875,1,1.0,1.0,1.0,1.0,50.00
2022-11-23 20:21:16.397,0.84971917,0.39285147,0.5728224,0.73343354,0.5034433,0.1381205,0.122401,0.69834375,0.835231,0.21223468,0.10749523,0.9517821,0.19551516,-0.07676037,-0.049560882,0.099472776,-0.16309294,-0.5695454,-0.56063163,-0.2541829,779.67035,840.5128,762.74725,753.0769,624.5421,-0.1849365234375,0.012939453125,1.0,2.91595458984375,2.97576904296875,1.517791748046875,1,1.0,1.0,1.0,1.0,50.00
2022-11-23 20:21:16.397,0.84971917,0.39285147,0.5728224,0.73343354,0.5034433,0.1381205,0.122401,0.69834375,0.835231,0.21223468,0.10749523,0.9517821,0.19551516,-0.07676037,-0.049560882,0.099472776,-0.16309294,-0.5695454,-0.56063163,-0.2541829,755.89746,845.7509,766.77655,741.39197,591.50183,-0.1849365234375,0.012939453125,1.0,2.91595458984375,2.97576904296875,1.517791748046875,1,1.0,1.0,1.0,1.0,50.00
2022-11-23 20:21:16.444,0.84971917,0.39285147,0.5728224,0.73343354,0.5034433,0.1381205,0.122401,0.69834375,0.835231,0.21223468,0.10749523,0.9517821,0.19551516,-0.07676037,-0.049560882,0.099472776,-0.16309294,-0.5695454,-0.56063163,-0.2541829,784.5055,851.79486,770.80585,767.98535,757.9121,-0.1990966796875,0.00750732421875,0.99530029296875,1.024322509765625,2.444915771484375,-0.9271240234375,1,1.0,1.0,1.0,1.0,50.00
2022-11-23 20:21:16.444,0.84971917,0.39285147,0.5728224,0.73343354,0.5034433,0.1381205,0.122401,0.69834375,0.835231,0.21223468,0.10749523,0.9517821,0.19551516,-0.07676037,-0.049560882,0.099472776,-0.16309294,-0.5695454,-0.56063163,-0.2541829,817.1429,849.7802,766.3736,780.4762,830.4396,-0.1990966796875,0.00750732421875,0.99530029296875,1.024322509765625,2.444915771484375,-0.9271240234375,1,1.0,1.0,1.0,1.0,50.00
2022-11-23 20:21:16.445,0.84971917,0.39285147,0.5728224,0.73343354,0.5034433,0.1381205,0.122401,0.69834375,0.835231,0.21223468,0.10749523,0.9517821,0.19551516,-0.07676037,-0.049560882,0.099472776,-0.16309294,-0.5695454,-0.56063163,-0.2541829,799.011,850.58606,761.13556,757.9121,768.7912,-0.1990966796875,0.00750732421875,0.99530029296875,1.024322509765625,2.444915771484375,-0.9271240234375,1,1.0,1.0,1.0,1.0,50.00
2022-11-23 20:21:16.445,0.84971917,0.39285147,0.5728224,0.73343354,0.5034433,0.1381205,0.122401,0.69834375,0.835231,0.21223468,0.10749523,0.9517821,0.19551516,-0.07676037,-0.049560882,0.099472776,-0.16309294,-0.5695454,-0.56063163,-0.2541829,767.98535,850.58606,757.9121,735.34796,668.0586,-0.1990966796875,0.00750732421875,0.99530029296875,1.024322509765625,2.444915771484375,-0.9271240234375,1,1.0,1.0,1.0,1.0,50.00
2022-11-23 20:21:16.445,0.84971917,0.39285147,0.5728224,0.73343354,0.5034433,0.1381205,0.122401,0.69834375,0.835231,0.21223468,0.10749523,0.9517821,0.19551516,-0.07676037,-0.049560882,0.099472776,-0.16309294,-0.5695454,-0.56063163,-0.2541829,785.7143,846.55676,756.7033,754.68866,641.4652,-0.1990966796875,0.00750732421875,0.99530029296875,1.024322509765625,2.444915771484375,-0.9271240234375,1,1.0,1.0,1.0,1.0,50.00
2022-11-23 20:21:16.445,0.84971917,0.39285147,0.5728224,0.73343354,0.5034433,0.1381205,0.122401,0.69834375,0.835231,0.21223468,0.10749523,0.9517821,0.19551516,-0.07676037,-0.049560882,0.099472776,-0.16309294,-0.5695454,-0.56063163,-0.2541829,817.5458,850.58606,755.4945,779.67035,794.17584,-0.1990966796875,0.00750732421875,0.99530029296875,1.024322509765625,2.444915771484375,-0.9271240234375,1,1.0,1.0,1.0,1.0,50.00
2022-11-23 20:21:16.445,0.84971917,0.39285147,0.5728224,0.73343354,0.5034433,0.1381205,0.122401,0.69834375,0.835231,0.21223468,0.10749523,0.9517821,0.19551516,-0.07676037,-0.049560882,0.099472776,-0.16309294,-0.5695454,-0.56063163,-0.2541829,804.65204,849.7802,753.47986,770.0,954.5421,-0.1990966796875,0.00750732421875,0.99530029296875,1.024322509765625,2.444915771484375,-0.9271240234375,1,1.0,1.0,1.0,1.0,50.00
2022-11-23 20:21:16.446,0.84971917,0.39285147,0.5728224,0.73343354,0.5034433,0.1381205,0.122401,0.69834375,0.835231,0.21223468,0.10749523,0.9517821,0.19551516,-0.07676037,-0.049560882,0.099472776,-0.16309294,-0.5695454,-0.56063163,-0.2541829,772.4176,846.55676,755.4945,751.06226,927.9487,-0.1990966796875,0.00750732421875,0.99530029296875,1.024322509765625,2.444915771484375,-0.9271240234375,1,1.0,1.0,1.0,1.0,50.00
2022-11-23 20:21:16.446,0.84971917,0.39285147,0.5728224,0.73343354,0.5034433,0.1381205,0.122401,0.69834375,0.835231,0.21223468,0.10749523,0.9517821,0.19551516,-0.07676037,-0.049560882,0.099472776,-0.16309294,-0.5695454,-0.56063163,-0.2541829,771.2088,845.7509,757.1062,756.30035,772.4176,-0.1990966796875,0.00750732421875,0.99530029296875,1.024322509765625,2.444915771484375,-0.9271240234375,1,1.0,1.0,1.0,1.0,50.00
2022-11-23 20:21:16.446,0.88216203,0.4408307,0.6239143,0.7504338,0.5655844,0.18466136,0.12086534,0.75742006,0.90464836,0.2970126,0.12378648,0.98509556,0.19544688,-0.09341722,-0.06821704,0.11686828,-0.15771972,-0.59869015,-0.5698253,-0.2552534,809.89014,844.5421,757.50916,784.10254,809.89014,-0.1990966796875,0.00750732421875,0.99530029296875,1.024322509765625,2.444915771484375,-0.9271240234375,1,1.0,1.0,1.0,1.0,50.00
2022-11-23 20:21:16.448,0.88216203,0.4408307,0.6239143,0.7504338,0.5655844,0.18466136,0.12086534,0.75742006,0.90464836,0.2970126,0.12378648,0.98509556,0.19544688,-0.09341722,-0.06821704,0.11686828,-0.15771972,-0.59869015,-0.5698253,-0.2552534,818.3516,845.7509,761.53845,783.2967,932.381,-0.1990966796875,0.00750732421875,0.99530029296875,1.024322509765625,2.444915771484375,-0.9271240234375,1,1.0,1.0,1.0,1.0,50.00
2022-11-23 20:21:16.448,0.88216203,0.4408307,0.6239143,0.7504338,0.5655844,0.18466136,0.12086534,0.75742006,0.90464836,0.2970126,0.12378648,0.98509556,0.19544688,-0.09341722,-0.06821704,0.11686828,-0.15771972,-0.59869015,-0.5698253,-0.2552534,782.49084,840.10986,765.9707,755.89746,843.73627,-0.1990966796875,0.00750732421875,0.99530029296875,1.024322509765625,2.444915771484375,-0.9271240234375,1,1.0,1.0,1.0,1.0,50.00
2022-11-23 20:21:16.494,0.88216203,0.4408307,0.6239143,0.7504338,0.5655844,0.18466136,0.12086534,0.75742006,0.90464836,0.2970126,0.12378648,0.98509556,0.19544688,-0.09341722,-0.06821704,0.11686828,-0.15771972,-0.59869015,-0.5698253,-0.2552534,767.1795,835.6777,772.8205,751.06226,649.12085,-0.1907958984375,-7.32421875E-4,1.001708984375,-0.2691650390625,0.665435791015625,-2.519683837890625,1,1.0,1.0,1.0,1.0,50.00
2022-11-23 20:21:16.494,0.88216203,0.4408307,0.6239143,0.7504338,0.5655844,0.18466136,0.12086534,0.75742006,0.90464836,0.2970126,0.12378648,0.98509556,0.19544688,-0.09341722,-0.06821704,0.11686828,-0.15771972,-0.59869015,-0.5698253,-0.2552534,802.6374,833.663,776.8498,784.10254,732.9304,-0.1907958984375,-7.32421875E-4,1.001708984375,-0.2691650390625,0.665435791015625,-2.519683837890625,1,1.0,1.0,1.0,1.0,50.00
2022-11-23 20:21:16.494,0.88216203,0.4408307,0.6239143,0.7504338,0.5655844,0.18466136,0.12086534,0.75742006,0.90464836,0.2970126,0.12378648,0.98509556,0.19544688,-0.09341722,-0.06821704,0.11686828,-0.15771972,-0.59869015,-0.5698253,-0.2552534,831.6484,832.8571,779.67035,800.2198,849.7802,-0.1907958984375,-7.32421875E-4,1.001708984375,-0.2691650390625,0.665435791015625,-2.519683837890625,1,1.0,1.0,1.0,1.0,50.00
2022-11-23 20:21:16.495,0.88216203,0.4408307,0.6239143,0.7504338,0.5655844,0.18466136,0.12086534,0.75742006,0.90464836,0.2970126,0.12378648,0.98509556,0.19544688,-0.09341722,-0.06821704,0.11686828,-0.15771972,-0.59869015,-0.5698253,-0.2552534,805.4579,834.0659,782.0879,774.0293,866.7033,-0.1907958984375,-7.32421875E-4,1.001708984375,-0.2691650390625,0.665435791015625,-2.519683837890625,1,1.0,1.0,1.0,1.0,50.00
2022-11-23 20:21:16.495,0.88216203,0.4408307,0.6239143,0.7504338,0.5655844,0.18466136,0.12086534,0.75742006,0.90464836,0.2970126,0.12378648,0.98509556,0.19544688,-0.09341722,-0.06821704,0.11686828,-0.15771972,-0.59869015,-0.5698253,-0.2552534,784.10254,832.0513,778.0586,763.1502,723.663,-0.1907958984375,-7.32421875E-4,1.001708984375,-0.2691650390625,0.665435791015625,-2.519683837890625,1,1.0,1.0,1.0,1.0,50.00
2022-11-23 20:21:16.495,0.88216203,0.4408307,0.6239143,0.7504338,0.5655844,0.18466136,0.12086534,0.75742006,0.90464836,0.2970126,0.12378648,0.98509556,0.19544688,-0.09341722,-0.06821704,0.11686828,-0.15771972,-0.59869015,-0.5698253,-0.2552534,811.0989,825.6044,778.86444,783.2967,738.5714,-0.1907958984375,-7.32421875E-4,1.001708984375,-0.2691650390625,0.665435791015625,-2.519683837890625,1,1.0,1.0,1.0,1.0,50.00
2022-11-23 20:21:16.495,0.88216203,0.4408307,0.6239143,0.7504338,0.5655844,0.18466136,0.12086534,0.75742006,0.90464836,0.2970126,0.12378648,0.98509556,0.19544688,-0.09341722,-0.06821704,0.11686828,-0.15771972,-0.59869015,-0.5698253,-0.2552534,846.9597,820.7692,783.2967,803.44324,1129.011,-0.1907958984375,-7.32421875E-4,1.001708984375,-0.2691650390625,0.665435791015625,-2.519683837890625,1,1.0,1.0,1.0,1.0,50.00
2022-11-23 20:21:16.496,0.88216203,0.4408307,0.6239143,0.7504338,0.5655844,0.18466136,0.12086534,0.75742006,0.90464836,0.2970126,0.12378648,0.98509556,0.19544688,-0.09341722,-0.06821704,0.11686828,-0.15771972,-0.59869015,-0.5698253,-0.2552534,828.4249,821.978,786.1172,796.5934,1110.8792,-0.1907958984375,-7.32421875E-4,1.001708984375,-0.2691650390625,0.665435791015625,-2.519683837890625,1,1.0,1.0,1.0,1.0,50.00
2022-11-23 20:21:16.496,0.88216203,0.4408307,0.6239143,0.7504338,0.5655844,0.18466136,0.12086534,0.75742006,0.90464836,0.2970126,0.12378648,0.98509556,0.19544688,-0.09341722,-0.06821704,0.11686828,-0.15771972,-0.59869015,-0.5698253,-0.2552534,791.75824,824.3956,792.1612,785.7143,672.8938,-0.1907958984375,-7.32421875E-4,1.001708984375,-0.2691650390625,0.665435791015625,-2.519683837890625,1,1.0,1.0,1.0,1.0,50.00
2022-11-23 20:21:16.496,0.88216203,0.4408307,0.6239143,0.7504338,0.5655844,0.18466136,0.12086534,0.75742006,0.90464836,0.2970126,0.12378648,0.98509556,0.19544688,-0.09341722,-0.06821704,0.11686828,-0.15771972,-0.59869015,-0.5698253,-0.2552534,801.8315,821.1722,796.99634,795.38464,630.989,-0.1907958984375,-7.32421875E-4,1.001708984375,-0.2691650390625,0.665435791015625,-2.519683837890625,1,1.0,1.0,1.0,1.0,50.00
2022-11-23 20:21:16.496,0.88216203,0.4408307,0.6239143,0.7504338,0.5655844,0.18466136,0.12086534,0.75742006,0.90464836,0.2970126,0.12378648,0.98509556,0.19544688,-0.09341722,-0.06821704,0.11686828,-0.15771972,-0.59869015,-0.5698253,-0.2552534,838.9011,819.9634,799.81683,819.15753,816.337,-0.1907958984375,-7.32421875E-4,1.001708984375,-0.2691650390625,0.665435791015625,-2.519683837890625,1,1.0,1.0,1.0,1.0,50.00
2022-11-23 20:21:16.497,0.88216203,0.4408307,0.6239143,0.7504338,0.5655844,0.18466136,0.12086534,0.75742006,0.90464836,0.2970126,0.12378648,0.98509556,0.19544688,-0.09341722,-0.06821704,0.11686828,-0.15771972,-0.59869015,-0.5698253,-0.2552534,825.6044,819.9634,795.78754,815.12823,825.2015,-0.1907958984375,-7.32421875E-4,1.001708984375,-0.2691650390625,0.665435791015625,-2.519683837890625,1,1.0,1.0,1.0,1.0,50.00
2022-11-23 20:21:16.545,0.88216203,0.4408307,0.6239143,0.7504338,0.5655844,0.18466136,0.12086534,0.75742006,0.90464836,0.2970126,0.12378648,0.98509556,0.19544688,-0.09341722,-0.06821704,0.11686828,-0.15771972,-0.59869015,-0.5698253,-0.2552534,786.9231,812.3077,794.9817,784.90845,662.01465,-0.1910400390625,-0.01763916015625,0.99871826171875,-1.256103515625,-0.904693603515625,-0.95703125,1,1.0,1.0,1.0,1.0,50.00
2022-11-23 20:21:16.545,0.88216203,0.4408307,0.6239143,0.7504338,0.5655844,0.18466136,0.12086534,0.75742006,0.90464836,0.2970126,0.12378648,0.98509556,0.19544688,-0.09341722,-0.06821704,0.11686828,-0.15771972,-0.59869015,-0.5698253,-0.2552534,784.5055,804.65204,799.011,788.5348,667.6557,-0.1910400390625,-0.01763916015625,0.99871826171875,-1.256103515625,-0.904693603515625,-0.95703125,1,1.0,1.0,1.0,1.0,50.00
2022-11-23 20:21:16.546,0.88216203,0.4408307,0.6239143,0.7504338,0.5655844,0.18466136,0.12086534,0.75742006,0.90464836,0.2970126,0.12378648,0.98509556,0.19544688,-0.09341722,-0.06821704,0.11686828,-0.15771972,-0.59869015,-0.5698253,-0.2552534,812.71063,804.2491,797.3993,818.7546,895.7143,-0.1910400390625,-0.01763916015625,0.99871826171875,-1.256103515625,-0.904693603515625,-0.95703125,1,1.0,1.0,1.0,1.0,50.00
2022-11-23 20:21:16.546,0.88216203,0.4408307,0.6239143,0.7504338,0.5655844,0.18466136,0.12086534,0.75742006,0.90464836,0.2970126,0.12378648,0.98509556,0.19544688,-0.09341722,-0.06821704,0.11686828,-0.15771972,-0.59869015,-0.5698253,-0.2552534,825.6044,801.8315,797.3993,823.1868,953.73627,-0.1910400390625,-0.01763916015625,0.99871826171875,-1.256103515625,-0.904693603515625,-0.95703125,1,1.0,1.0,1.0,1.0,50.00
2022-11-23 20:21:16.546,0.88216203,0.4408307,0.6239143,0.7504338,0.5655844,0.18466136,0.12086534,0.75742006,0.90464836,0.2970126,0.12378648,0.98509556,0.19544688,-0.09341722,-0.06821704,0.11686828,-0.15771972,-0.59869015,-0.5698253,-0.2552534,793.7729,796.99634,796.99634,788.93774,721.6484,-0.1910400390625,-0.01763916015625,0.99871826171875,-1.256103515625,-0.904693603515625,-0.95703125,1,1.0,1.0,1.0,1.0,50.00
2022-11-23 20:21:16.546,0.88216203,0.4408307,0.6239143,0.7504338,0.5655844,0.18466136,0.12086534,0.75742006,0.90464836,0.2970126,0.12378648,0.98509556,0.19544688,-0.09341722,-0.06821704,0.11686828,-0.15771972,-0.59869015,-0.5698253,-0.2552534,771.2088,794.9817,799.41394,774.0293,815.5311,-0.1910400390625,-0.01763916015625,0.99871826171875,-1.256103515625,-0.904693603515625,-0.95703125,1,1.0,1.0,1.0,1.0,50.00
2022-11-23 20:21:16.547,0.88216203,0.4408307,0.6239143,0.7504338,0.5655844,0.18466136,0.12086534,0.75742006,0.90464836,0.2970126,0.12378648,0.98509556,0.19544688,-0.09341722,-0.06821704,0.11686828,-0.15771972,-0.59869015,-0.5698253,-0.2552534,801.4286,792.1612,799.011,805.8608,1102.8206,-0.1910400390625,-0.01763916015625,0.99871826171875,-1.256103515625,-0.904693603515625,-0.95703125,1,1.0,1.0,1.0,1.0,50.00
2022-11-23 20:21:16.547,0.88216203,0.4408307,0.6239143,0.7504338,0.5655844,0.18466136,0.12086534,0.75742006,0.90464836,0.2970126,0.12378648,0.98509556,0.19544688,-0.09341722,-0.06821704,0.11686828,-0.15771972,-0.59869015,-0.5698253,-0.2552534,835.6777,797.3993,800.2198,830.84247,1037.1428,-0.1910400390625,-0.01763916015625,0.99871826171875,-1.256103515625,-0.904693603515625,-0.95703125,1,1.0,1.0,1.0,1.0,50.00
2022-11-23 20:21:16.547,0.88216203,0.4408307,0.6239143,0.7504338,0.5655844,0.18466136,0.12086534,0.75742006,0.90464836,0.2970126,0.12378648,0.98509556,0.19544688,-0.09341722,-0.06821704,0.11686828,-0.15771972,-0.59869015,-0.5698253,-0.2552534,807.0696,801.02563,802.23444,793.7729,794.17584,-0.1910400390625,-0.01763916015625,0.99871826171875,-1.256103515625,-0.904693603515625,-0.95703125,1,1.0,1.0,1.0,1.0,50.00
2022-11-23 20:21:16.547,0.88216203,0.4408307,0.6239143,0.7504338,0.5655844,0.18466136,0.12086534,0.75742006,0.90464836,0.2970126,0.12378648,0.98509556,0.19544688,-0.09341722,-0.06821704,0.11686828,-0.15771972,-0.59869015,-0.5698253,-0.2552534,771.2088,796.1905,803.0403,775.2381,691.8315,-0.1910400390625,-0.01763916015625,0.99871826171875,-1.256103515625,-0.904693603515625,-0.95703125,1,1.0,1.0,1.0,1.0,50.00
2022-11-23 20:21:16.548,0.88216203,0.4408307,0.6239143,0.7504338,0.5655844,0.18466136,0.12086534,0.75742006,0.90464836,0.2970126,0.12378648,0.98509556,0.19544688,-0.09341722,-0.06821704,0.11686828,-0.15771972,-0.59869015,-0.5698253,-0.2552534,809.89014,797.3993,805.05493,820.7692,801.02563,-0.1910400390625,-0.01763916015625,0.99871826171875,-1.256103515625,-0.904693603515625,-0.95703125,1,1.0,1.0,1.0,1.0,50.00
2022-11-23 20:21:16.548,0.9090149,0.49189398,0.675417,0.7805654,0.6295474,0.22171827,0.11751479,0.81101334,0.92207396,0.317821,0.13415179,0.98511493,0.19404127,-0.10786458,-0.07818865,0.1523781,-0.1507282,-0.6246615,-0.5775823,-0.2555894,846.55676,807.47253,802.6374,839.707,878.7912,-0.1910400390625,-0.01763916015625,0.99871826171875,-1.256103515625,-0.904693603515625,-0.95703125,1,1.0,1.0,1.0,1.0,50.00
2022-11-23 20:21:16.570,0.9090149,0.49189398,0.675417,0.7805654,0.6295474,0.22171827,0.11751479,0.81101334,0.92207396,0.317821,0.13415179,0.98511493,0.19404127,-0.10786458,-0.07818865,0.1523781,-0.1507282,-0.6246615,-0.5775823,-0.2555894,811.9048,810.696,800.6227,800.2198,829.6337,-0.1910400390625,-0.01763916015625,0.99871826171875,-1.256103515625,-0.904693603515625,-0.95703125,1,1.0,1.0,1.0,1.0,50.00
2022-11-23 20:21:16.570,0.9090149,0.49189398,0.675417,0.7805654,0.6295474,0.22171827,0.11751479,0.81101334,0.92207396,0.317821,0.13415179,0.98511493,0.19404127,-0.10786458,-0.07818865,0.1523781,-0.1507282,-0.6246615,-0.5775823,-0.2555894,775.64105,810.696,797.8022,762.74725,653.5531,-0.1910400390625,-0.01763916015625,0.99871826171875,-1.256103515625,-0.904693603515625,-0.95703125,1,1.0,1.0,1.0,1.0,50.00
2022-11-23 20:21:16.570,0.9090149,0.49189398,0.675417,0.7805654,0.6295474,0.22171827,0.11751479,0.81101334,0.92207396,0.317821,0.13415179,0.98511493,0.19404127,-0.10786458,-0.07818865,0.1523781,-0.1507282,-0.6246615,-0.5775823,-0.2555894,788.5348,809.4872,793.36993,782.0879,688.20514,-0.1910400390625,-0.01763916015625,0.99871826171875,-1.256103515625,-0.904693603515625,-0.95703125,1,1.0,1.0,1.0,1.0,50.00
2022-11-23 20:21:16.571,0.9090149,0.49189398,0.675417,0.7805654,0.6295474,0.22171827,0.11751479,0.81101334,0.92207396,0.317821,0.13415179,0.98511493,0.19404127,-0.10786458,-0.07818865,0.1523781,-0.1507282,-0.6246615,-0.5775823,-0.2555894,830.84247,812.71063,791.3553,810.293,800.6227,-0.1910400390625,-0.01763916015625,0.99871826171875,-1.256103515625,-0.904693603515625,-0.95703125,1,1.0,1.0,1.0,1.0,50.00
2022-11-23 20:21:16.571,0.9090149,0.49189398,0.675417,0.7805654,0.6295474,0.22171827,0.11751479,0.81101334,0.92207396,0.317821,0.13415179,0.98511493,0.19404127,-0.10786458,-0.07818865,0.1523781,-0.1507282,-0.6246615,-0.5775823,-0.2555894,805.05493,815.5311,790.14655,786.52014,783.2967,-0.1910400390625,-0.01763916015625,0.99871826171875,-1.256103515625,-0.904693603515625,-0.95703125,1,1.0,1.0,1.0,1.0,50.00
2022-11-23 20:21:16.571,0.9090149,0.49189398,0.675417,0.7805654,0.6295474,0.22171827,0.11751479,0.81101334,0.92207396,0.317821,0.13415179,0.98511493,0.19404127,-0.10786458,-0.07818865,0.1523781,-0.1507282,-0.6246615,-0.5775823,-0.2555894,762.74725,813.91943,789.34064,764.35895,898.93774,-0.1910400390625,-0.01763916015625,0.99871826171875,-1.256103515625,-0.904693603515625,-0.95703125,1,1.0,1.0,1.0,1.0,50.00
2022-11-23 20:21:16.572,0.9090149,0.49189398,0.675417,0.7805654,0.6295474,0.22171827,0.11751479,0.81101334,0.92207396,0.317821,0.13415179,0.98511493,0.19404127,-0.10786458,-0.07818865,0.1523781,-0.1507282,-0.6246615,-0.5775823,-0.2555894,775.2381,815.9341,788.1319,765.9707,947.28937,-0.1910400390625,-0.01763916015625,0.99871826171875,-1.256103515625,-0.904693603515625,-0.95703125,1,1.0,1.0,1.0,1.0,50.00
2022-11-23 20:21:16.572,0.9090149,0.49189398,0.675417,0.7805654,0.6295474,0.22171827,0.11751479,0.81101334,0.92207396,0.317821,0.13415179,0.98511493,0.19404127,-0.10786458,-0.07818865,0.1523781,-0.1507282,-0.6246615,-0.5775823,-0.2555894,810.293,814.3223,788.1319,790.54944,853.00366,-0.1910400390625,-0.01763916015625,0.99871826171875,-1.256103515625,-0.904693603515625,-0.95703125,1,1.0,1.0,1.0,1.0,50.00
2022-11-23 20:21:16.572,0.9090149,0.49189398,0.675417,0.7805654,0.6295474,0.22171827,0.11751479,0.81101334,0.92207396,0.317821,0.13415179,0.98511493,0.19404127,-0.10786458,-0.07818865,0.1523781,-0.1507282,-0.6246615,-0.5775823,-0.2555894,825.2015,811.0989,789.7436,802.6374,854.21246,-0.1910400390625,-0.01763916015625,0.99871826171875,-1.256103515625,-0.904693603515625,-0.95703125,1,1.0,1.0,1.0,1.0,50.00
2022-11-23 20:21:16.572,0.9090149,0.49189398,0.675417,0.7805654,0.6295474,0.22171827,0.11751479,0.81101334,0.92207396,0.317821,0.13415179,0.98511493,0.19404127,-0.10786458,-0.07818865,0.1523781,-0.1507282,-0.6246615,-0.5775823,-0.2555894,785.31134,807.47253,789.34064,783.69965,761.53845,-0.1910400390625,-0.01763916015625,0.99871826171875,-1.256103515625,-0.904693603515625,-0.95703125,1,1.0,1.0,1.0,1.0,50.00
2022-11-23 20:21:16.572,0.9090149,0.49189398,0.675417,0.7805654,0.6295474,0.22171827,0.11751479,0.81101334,0.92207396,0.317821,0.13415179,0.98511493,0.19404127,-0.10786458,-0.07818865,0.1523781,-0.1507282,-0.6246615,-0.5775823,-0.2555894,767.1795,806.6667,790.9524,780.4762,767.5824,-0.1910400390625,-0.01763916015625,0.99871826171875,-1.256103515625,-0.904693603515625,-0.95703125,1,1.0,1.0,1.0,1.0,50.00
2022-11-23 20:21:16.573,0.9090149,0.49189398,0.675417,0.7805654,0.6295474,0.22171827,0.11751479,0.81101334,0.92207396,0.317821,0.13415179,0.98511493,0.19404127,-0.10786458,-0.07818865,0.1523781,-0.1507282,-0.6246615,-0.5775823,-0.2555894,800.6227,808.2784,796.1905,801.02563,868.71796,-0.1910400390625,-0.01763916015625,0.99871826171875,-1.256103515625,-0.904693603515625,-0.95703125,1,1.0,1.0,1.0,1.0,50.00
2022-11-23 20:21:16.619,0.9090149,0.49189398,0.675417,0.7805654,0.6295474,0.22171827,0.11751479,0.81101334,0.92207396,0.317821,0.13415179,0.98511493,0.19404127,-0.10786458,-0.07818865,0.1523781,-0.1507282,-0.6246615,-0.5775823,-0.2555894,824.7985,811.0989,799.41394,808.2784,971.4652,-0.195068359375,-0.03045654296875,0.99346923828125,-0.500946044921875,-0.874786376953125,-1.6448974609375,1,1.0,1.0,1.0,1.0,50.00
2022-11-23 20:21:16.619,0.9090149,0.49189398,0.675417,0.7805654,0.6295474,0.22171827,0.11751479,0.81101334,0.92207396,0.317821,0.13415179,0.98511493,0.19404127,-0.10786458,-0.07818865,0.1523781,-0.1507282,-0.6246615,-0.5775823,-0.2555894,797.3993,803.8461,797.3993,784.90845,940.0366,-0.195068359375,-0.03045654296875,0.99346923828125,-0.500946044921875,-0.874786376953125,-1.6448974609375,1,1.0,1.0,1.0,1.0,50.00
2022-11-23 20:21:16.620,0.9090149,0.49189398,0.675417,0.7805654,0.6295474,0.22171827,0.11751479,0.81101334,0.92207396,0.317821,0.13415179,0.98511493,0.19404127,-0.10786458,-0.07818865,0.1523781,-0.1507282,-0.6246615,-0.5775823,-0.2555894,771.2088,800.6227,801.02563,775.64105,796.1905,-0.195068359375,-0.03045654296875,0.99346923828125,-0.500946044921875,-0.874786376953125,-1.6448974609375,1,1.0,1.0,1.0,1.0,50.00
2022-11-23 20:21:16.620,0.9090149,0.49189398,0.675417,0.7805654,0.6295474,0.22171827,0.11751479,0.81101334,0.92207396,0.317821,0.13415179,0.98511493,0.19404127,-0.10786458,-0.07818865,0.1523781,-0.1507282,-0.6246615,-0.5775823,-0.2555894,792.1612,802.23444,805.8608,805.4579,782.8938,-0.195068359375,-0.03045654296875,0.99346923828125,-0.500946044921875,-0.874786376953125,-1.6448974609375,1,1.0,1.0,1.0,1.0,50.00
2022-11-23 20:21:16.620,0.9090149,0.49189398,0.675417,0.7805654,0.6295474,0.22171827,0.11751479,0.81101334,0.92207396,0.317821,0.13415179,0.98511493,0.19404127,-0.10786458,-0.07818865,0.1523781,-0.1507282,-0.6246615,-0.5775823,-0.2555894,828.4249,797.3993,801.4286,824.7985,817.1429,-0.195068359375,-0.03045654296875,0.99346923828125,-0.500946044921875,-0.874786376953125,-1.6448974609375,1,1.0,1.0,1.0,1.0,50.00
2022-11-23 20:21:16.621,0.9090149,0.49189398,0.675417,0.7805654,0.6295474,0.22171827,0.11751479,0.81101334,0.92207396,0.317821,0.13415179,0.98511493,0.19404127,-0.10786458,-0.07818865,0.1523781,-0.1507282,-0.6246615,-0.5775823,-0.2555894,821.5751,796.99634,804.2491,807.8755,786.1172,-0.195068359375,-0.03045654296875,0.99346923828125,-0.500946044921875,-0.874786376953125,-1.6448974609375,1,1.0,1.0,1.0,1.0,50.00
2022-11-23 20:21:16.621,0.9090149,0.49189398,0.675417,0.7805654,0.6295474,0.22171827,0.11751479,0.81101334,0.92207396,0.317821,0.13415179,0.98511493,0.19404127,-0.10786458,-0.07818865,0.1523781,-0.1507282,-0.6246615,-0.5775823,-0.2555894,784.5055,804.2491,807.8755,788.1319,663.22345,-0.195068359375,-0.03045654296875,0.99346923828125,-0.500946044921875,-0.874786376953125,-1.6448974609375,1,1.0,1.0,1.0,1.0,50.00
2022-11-23 20:21:16.621,0.9090149,0.49189398,0.675417,0.7805654,0.6295474,0.22171827,0.11751479,0.81101334,0.92207396,0.317821,0.13415179,0.98511493,0.19404127,-0.10786458,-0.07818865,0.1523781,-0.1507282,-0.6246615,-0.5775823,-0.2555894,791.75824,809.0842,803.8461,791.75824,598.3516,-0.195068359375,-0.03045654296875,0.99346923828125,-0.500946044921875,-0.874786376953125,-1.6448974609375,1,1.0,1.0,1.0,1.0,50.00
2022-11-23 20:21:16.621,0.9090149,0.49189398,0.675417,0.7805654,0.6295474,0.22171827,0.11751479,0.81101334,0.92207396,0.317821,0.13415179,0.98511493,0.19404127,-0.10786458,-0.07818865,0.1523781,-0.1507282,-0.6246615,-0.5775823,-0.2555894,831.2454,807.8755,807.47253,820.7692,803.44324,-0.195068359375,-0.03045654296875,0.99346923828125,-0.500946044921875,-0.874786376953125,-1.6448974609375,1,1.0,1.0,1.0,1.0,50.00
2022-11-23 20:21:16.622,0.9090149,0.49189398,0.675417,0.7805654,0.6295474,0.22171827,0.11751479,0.81101334,0.92207396,0.317821,0.13415179,0.98511493,0.19404127,-0.10786458,-0.07818865,0.1523781,-0.1507282,-0.6246615,-0.5775823,-0.2555894,838.49817,809.89014,810.696,833.2601,1210.403,-0.195068359375,-0.03045654296875,0.99346923828125,-0.500946044921875,-0.874786376953125,-1.6448974609375,1,1.0,1.0,1.0,1.0,50.00
2022-11-23 20:21:16.622,0.9090149,0.49189398,0.675417,0.7805654,0.6295474,0.22171827,0.11751479,0.81101334,0.92207396,0.317821,0.13415179,0.98511493,0.19404127,-0.10786458,-0.07818865,0.1523781,-0.1507282,-0.6246615,-0.5775823,-0.2555894,807.0696,809.0842,809.4872,801.02563,1018.60803,-0.195068359375,-0.03045654296875,0.99346923828125,-0.500946044921875,-0.874786376953125,-1.6448974609375,1,1.0,1.0,1.0,1.0,50.00
2022-11-23 20:21:16.622,0.9090149,0.49189398,0.675417,0.7805654,0.6295474,0.22171827,0.11751479,0.81101334,0.92207396,0.317821,0.13415179,0.98511493,0.19404127,-0.10786458,-0.07818865,0.1523781,-0.1507282,-0.6246615,-0.5775823,-0.2555894,792.96704,804.2491,804.65204,791.3553,585.05493,-0.195068359375,-0.03045654296875,0.99346923828125,-0.500946044921875,-0.874786376953125,-1.6448974609375,1,1.0,1.0,1.0,1.0,50.00
2022-11-23 20:21:16.665,0.9090149,0.49189398,0.675417,0.7805654,0.6295474,0.22171827,0.11751479,0.81101334,0.92207396,0.317821,0.13415179,0.98511493,0.19404127,-0.10786458,-0.07818865,0.1523781,-0.1507282,-0.6246615,-0.5775823,-0.2555894,829.6337,802.23444,809.4872,821.978,693.0403,-0.2017822265625,-0.02783203125,0.9952392578125,2.953338623046875,0.441131591796875,-1.5252685546875,1,1.0,1.0,1.0,1.0,50.00
2022-11-23 20:21:16.665,0.9344771,0.60429406,0.76384735,0.84904116,0.693796,0.26906037,0.13683738,0.86360127,0.9257442,0.34277233,0.16024669,0.9834935,0.19695683,-0.1159416,-0.07368568,0.19401523,-0.14251423,-0.6402342,-0.5861471,-0.25105575,845.34796,801.8315,810.293,833.663,790.14655,-0.2017822265625,-0.02783203125,0.9952392578125,2.953338623046875,0.441131591796875,-1.5252685546875,1,1.0,1.0,1.0,1.0,50.00
2022-11-23 20:21:16.667,0.9344771,0.60429406,0.76384735,0.84904116,0.693796,0.26906037,0.13683738,0.86360127,0.9257442,0.34277233,0.16024669,0.9834935,0.19695683,-0.1159416,-0.07368568,0.19401523,-0.14251423,-0.6402342,-0.5861471,-0.25105575,801.8315,798.60803,804.65204,814.3223,637.8388,-0.2017822265625,-0.02783203125,0.9952392578125,2.953338623046875,0.441131591796875,-1.5252685546875,1,1.0,1.0,1.0,1.0,50.00
2022-11-23 20:21:16.667,0.9344771,0.60429406,0.76384735,0.84904116,0.693796,0.26906037,0.13683738,0.86360127,0.9257442,0.34277233,0.16024669,0.9834935,0.19695683,-0.1159416,-0.07368568,0.19401523,-0.14251423,-0.6402342,-0.5861471,-0.25105575,786.52014,798.20514,808.2784,796.5934,531.8681,-0.2017822265625,-0.02783203125,0.9952392578125,2.953338623046875,0.441131591796875,-1.5252685546875,1,1.0,1.0,1.0,1.0,50.00
2022-11-23 20:21:16.667,0.9344771,0.60429406,0.76384735,0.84904116,0.693796,0.26906037,0.13683738,0.86360127,0.9257442,0.34277233,0.16024669,0.9834935,0.19695683,-0.1159416,-0.07368568,0.19401523,-0.14251423,-0.6402342,-0.5861471,-0.25105575,816.7399,802.23444,810.293,818.3516,654.35895,-0.2017822265625,-0.02783203125,0.9952392578125,2.953338623046875,0.441131591796875,-1.5252685546875,1,1.0,1.0,1.0,1.0,50.00
2022-11-23 20:21:16.667,0.9344771,0.60429406,0.76384735,0.84904116,0.693796,0.26906037,0.13683738,0.86360127,0.9257442,0.34277233,0.16024669,0.9834935,0.19695683,-0.1159416,-0.07368568,0.19401523,-0.14251423,-0.6402342,-0.5861471,-0.25105575,838.0952,800.6227,808.68134,839.707,855.42126,-0.2017822265625,-0.02783203125,0.9952392578125,2.953338623046875,0.441131591796875,-1.5252685546875,1,1.0,1.0,1.0,1.0,50.00
2022-11-23 20:21:16.667,0.9344771,0.60429406,0.76384735,0.84904116,0.693796,0.26906037,0.13683738,0.86360127,0.9257442,0.34277233,0.16024669,0.9834935,0.19695683,-0.1159416,-0.07368568,0.19401523,-0.14251423,-0.6402342,-0.5861471,-0.25105575,821.978,799.011,807.8755,819.9634,809.4872,-0.2017822265625,-0.02783203125,0.9952392578125,2.953338623046875,0.441131591796875,-1.5252685546875,1,1.0,1.0,1.0,1.0,50.00
2022-11-23 20:21:16.668,0.9344771,0.60429406,0.76384735,0.84904116,0.693796,0.26906037,0.13683738,0.86360127,0.9257442,0.34277233,0.16024669,0.9834935,0.19695683,-0.1159416,-0.07368568,0.19401523,-0.14251423,-0.6402342,-0.5861471,-0.25105575,791.75824,806.6667,811.50183,798.60803,566.9231,-0.2017822265625,-0.02783203125,0.9952392578125,2.953338623046875,0.441131591796875,-1.5252685546875,1,1.0,1.0,1.0,1.0,50.00
2022-11-23 20:21:16.668,0.9344771,0.60429406,0.76384735,0.84904116,0.693796,0.26906037,0.13683738,0.86360127,0.9257442,0.34277233,0.16024669,0.9834935,0.19695683,-0.1159416,-0.07368568,0.19401523,-0.14251423,-0.6402342,-0.5861471,-0.25105575,796.1905,803.8461,808.2784,810.696,775.64105,-0.2017822265625,-0.02783203125,0.9952392578125,2.953338623046875,0.441131591796875,-1.5252685546875,1,1.0,1.0,1.0,1.0,50.00
2022-11-23 20:21:16.668,0.9344771,0.60429406,0.76384735,0.84904116,0.693796,0.26906037,0.13683738,0.86360127,0.9257442,0.34277233,0.16024669,0.9834935,0.19695683,-0.1159416,-0.07368568,0.19401523,-0.14251423,-0.6402342,-0.5861471,-0.25105575,825.6044,799.41394,807.0696,831.6484,1109.2675,-0.2017822265625,-0.02783203125,0.9952392578125,2.953338623046875,0.441131591796875,-1.5252685546875,1,1.0,1.0,1.0,1.0,50.00
2022-11-23 20:21:16.668,0.9344771,0.60429406,0.76384735,0.84904116,0.693796,0.26906037,0.13683738,0.86360127,0.9257442,0.34277233,0.16024669,0.9834935,0.19695683,-0.1159416,-0.07368568,0.19401523,-0.14251423,-0.6402342,-0.5861471,-0.25105575,824.7985,807.0696,810.696,823.1868,894.5055,-0.2017822265625,-0.02783203125,0.9952392578125,2.953338623046875,0.441131591796875,-1.5252685546875,1,1.0,1.0,1.0,1.0,50.00
2022-11-23 20:21:16.669,0.9344771,0.60429406,0.76384735,0.84904116,0.693796,0.26906037,0.13683738,0.86360127,0.9257442,0.34277233,0.16024669,0.9834935,0.19695683,-0.1159416,-0.07368568,0.19401523,-0.14251423,-0.6402342,-0.5861471,-0.25105575,790.9524,805.4579,809.4872,799.81683,686.99634,-0.2017822265625,-0.02783203125,0.9952392578125,2.953338623046875,0.441131591796875,-1.5252685546875,1,1.0,1.0,1.0,1.0,50.00
2022-11-23 20:21:16.710,0.9344771,0.60429406,0.76384735,0.84904116,0.693796,0.26906037,0.13683738,0.86360127,0.9257442,0.34277233,0.16024669,0.9834935,0.19695683,-0.1159416,-0.07368568,0.19401523,-0.14251423,-0.6402342,-0.5861471,-0.25105575,783.69965,803.0403,809.4872,795.38464,654.35895,-0.21124267578125,-0.024658203125,0.9913330078125,4.074859619140625,-0.306549072265625,-2.190704345703125,1,1.0,1.0,1.0,1.0,50.00
2022-11-23 20:21:16.711,0.9344771,0.60429406,0.76384735,0.84904116,0.693796,0.26906037,0.13683738,0.86360127,0.9257442,0.34277233,0.16024669,0.9834935,0.19695683,-0.1159416,-0.07368568,0.19401523,-0.14251423,-0.6402342,-0.5861471,-0.25105575,828.8278,805.4579,807.47253,823.9927,819.9634,-0.21124267578125,-0.024658203125,0.9913330078125,4.074859619140625,-0.306549072265625,-2.190704345703125,1,1.0,1.0,1.0,1.0,50.00
2022-11-23 20:21:16.711,0.9344771,0.60429406,0.76384735,0.84904116,0.693796,0.26906037,0.13683738,0.86360127,0.9257442,0.34277233,0.16024669,0.9834935,0.19695683,-0.1159416,-0.07368568,0.19401523,-0.14251423,-0.6402342,-0.5861471,-0.25105575,841.7216,803.8461,803.8461,824.3956,904.57874,-0.21124267578125,-0.024658203125,0.9913330078125,4.074859619140625,-0.306549072265625,-2.190704345703125,1,1.0,1.0,1.0,1.0,50.00
2022-11-23 20:21:16.711,0.9344771,0.60429406,0.76384735,0.84904116,0.693796,0.26906037,0.13683738,0.86360127,0.9257442,0.34277233,0.16024669,0.9834935,0.19695683,-0.1159416,-0.07368568,0.19401523,-0.14251423,-0.6402342,-0.5861471,-0.25105575,799.41394,807.0696,796.99634,794.9817,703.91943,-0.21124267578125,-0.024658203125,0.9913330078125,4.074859619140625,-0.306549072265625,-2.190704345703125,1,1.0,1.0,1.0,1.0,50.00
2022-11-23 20:21:16.712,0.9344771,0.60429406,0.76384735,0.84904116,0.693796,0.26906037,0.13683738,0.86360127,0.9257442,0.34277233,0.16024669,0.9834935,0.19695683,-0.1159416,-0.07368568,0.19401523,-0.14251423,-0.6402342,-0.5861471,-0.25105575,777.25275,807.0696,795.38464,788.5348,621.7216,-0.21124267578125,-0.024658203125,0.9913330078125,4.074859619140625,-0.306549072265625,-2.190704345703125,1,1.0,1.0,1.0,1.0,50.00
2022-11-23 20:21:16.712,0.9344771,0.60429406,0.76384735,0.84904116,0.693796,0.26906037,0.13683738,0.86360127,0.9257442,0.34277233,0.16024669,0.9834935,0.19695683,-0.1159416,-0.07368568,0.19401523,-0.14251423,-0.6402342,-0.5861471,-0.25105575,808.68134,803.8461,800.6227,807.0696,804.65204,-0.21124267578125,-0.024658203125,0.9913330078125,4.074859619140625,-0.306549072265625,-2.190704345703125,1,1.0,1.0,1.0,1.0,50.00
2022-11-23 20:21:16.712,0.9344771,0.60429406,0.76384735,0.84904116,0.693796,0.26906037,0.13683738,0.86360127,0.9257442,0.34277233,0.16024669,0.9834935,0.19695683,-0.1159416,-0.07368568,0.19401523,-0.14251423,-0.6402342,-0.5861471,-0.25105575,831.2454,805.05493,800.2198,817.1429,983.1502,-0.21124267578125,-0.024658203125,0.9913330078125,4.074859619140625,-0.306549072265625,-2.190704345703125,1,1.0,1.0,1.0,1.0,50.00
2022-11-23 20:21:16.712,0.9344771,0.60429406,0.76384735,0.84904116,0.693796,0.26906037,0.13683738,0.86360127,0.9257442,0.34277233,0.16024669,0.9834935,0.19695683,-0.1159416,-0.07368568,0.19401523,-0.14251423,-0.6402342,-0.5861471,-0.25105575,797.8022,806.26373,798.60803,794.9817,937.2161,-0.21124267578125,-0.024658203125,0.9913330078125,4.074859619140625,-0.306549072265625,-2.190704345703125,1,1.0,1.0,1.0,1.0,50.00
2022-11-23 20:21:16.713,0.9344771,0.60429406,0.76384735,0.84904116,0.693796,0.26906037,0.13683738,0.86360127,0.9257442,0.34277233,0.16024669,0.9834935,0.19695683,-0.1159416,-0.07368568,0.19401523,-0.14251423,-0.6402342,-0.5861471,-0.25105575,769.59705,806.6667,796.5934,778.46155,898.93774,-0.21124267578125,-0.024658203125,0.9913330078125,4.074859619140625,-0.306549072265625,-2.190704345703125,1,1.0,1.0,1.0,1.0,50.00
2022-11-23 20:21:16.713,0.9344771,0.60429406,0.76384735,0.84904116,0.693796,0.26906037,0.13683738,0.86360127,0.9257442,0.34277233,0.16024669,0.9834935,0.19695683,-0.1159416,-0.07368568,0.19401523,-0.14251423,-0.6402342,-0.5861471,-0.25105575,796.5934,805.05493,797.8022,800.2198,815.5311,-0.21124267578125,-0.024658203125,0.9913330078125,4.074859619140625,-0.306549072265625,-2.190704345703125,1,1.0,1.0,1.0,1.0,50.00
2022-11-23 20:21:16.713,0.9344771,0.60429406,0.76384735,0.84904116,0.693796,0.26906037,0.13683738,0.86360127,0.9257442,0.34277233,0.16024669,0.9834935,0.19695683,-0.1159416,-0.07368568,0.19401523,-0.14251423,-0.6402342,-0.5861471,-0.25105575,827.2161,803.8461,801.02563,818.7546,853.8095,-0.21124267578125,-0.024658203125,0.9913330078125,4.074859619140625,-0.306549072265625,-2.190704345703125,1,1.0,1.0,1.0,1.0,50.00
2022-11-23 20:21:16.714,0.9344771,0.60429406,0.76384735,0.84904116,0.693796,0.26906037,0.13683738,0.86360127,0.9257442,0.34277233,0.16024669,0.9834935,0.19695683,-0.1159416,-0.07368568,0.19401523,-0.14251423,-0.6402342,-0.5861471,-0.25105575,812.3077,806.26373,798.60803,806.6667,941.6484,-0.21124267578125,-0.024658203125,0.9913330078125,4.074859619140625,-0.306549072265625,-2.190704345703125,1,1.0,1.0,1.0,1.0,50.00
2022-11-23 20:21:16.785,0.9344771,0.60429406,0.76384735,0.84904116,0.693796,0.26906037,0.13683738,0.86360127,0.9257442,0.34277233,0.16024669,0.9834935,0.19695683,-0.1159416,-0.07368568,0.19401523,-0.14251423,-0.6402342,-0.5861471,-0.25105575,776.04395,807.0696,800.2198,792.1612,730.9158,-0.20263671875,-0.0126953125,0.99859619140625,5.1141357421875,-0.97198486328125,-4.194488525390625,1,1.0,1.0,1.0,1.0,50.00
2022-11-23 20:21:16.785,0.9344771,0.60429406,0.76384735,0.84904116,0.693796,0.26906037,0.13683738,0.86360127,0.9257442,0.34277233,0.16024669,0.9834935,0.19695683,-0.1159416,-0.07368568,0.19401523,-0.14251423,-0.6402342,-0.5861471,-0.25105575,784.90845,810.293,797.3993,789.34064,625.34796,-0.20263671875,-0.0126953125,0.99859619140625,5.1141357421875,-0.97198486328125,-4.194488525390625,1,1.0,1.0,1.0,1.0,50.00
2022-11-23 20:21:16.785,0.9344771,0.60429406,0.76384735,0.84904116,0.693796,0.26906037,0.13683738,0.86360127,0.9257442,0.34277233,0.16024669,0.9834935,0.19695683,-0.1159416,-0.07368568,0.19401523,-0.14251423,-0.6402342,-0.5861471,-0.25105575,817.1429,810.293,794.17584,791.75824,763.95605,-0.20263671875,-0.0126953125,0.99859619140625,5.1141357421875,-0.97198486328125,-4.194488525390625,1,1.0,1.0,1.0,1.0,50.00
2022-11-23 20:21:16.786,0.9592522,0.7698831,0.7929399,0.9560059,0.763948,0.35381547,0.13852504,0.924633,0.93195164,0.35402137,0.16008076,0.9834935,0.2131362,-0.11073308,-0.07728416,0.22933093,-0.13617842,-0.6456711,-0.5900908,-0.23757611,813.5165,809.0842,794.9817,788.5348,867.1062,-0.20263671875,-0.0126953125,0.99859619140625,5.1141357421875,-0.97198486328125,-4.194488525390625,1,1.0,1.0,1.0,1.0,50.00
2022-11-23 20:21:16.787,0.9592522,0.7698831,0.7929399,0.9560059,0.763948,0.35381547,0.13852504,0.924633,0.93195164,0.35402137,0.16008076,0.9834935,0.2131362,-0.11073308,-0.07728416,0.22933093,-0.13617842,-0.6456711,-0.5900908,-0.23757611,779.67035,811.9048,798.60803,770.0,780.07324,-0.20263671875,-0.0126953125,0.99859619140625,5.1141357421875,-0.97198486328125,-4.194488525390625,1,1.0,1.0,1.0,1.0,50.00
2022-11-23 20:21:16.787,0.9592522,0.7698831,0.7929399,0.9560059,0.763948,0.35381547,0.13852504,0.924633,0.93195164,0.35402137,0.16008076,0.9834935,0.2131362,-0.11073308,-0.07728416,0.22933093,-0.13617842,-0.6456711,-0.5900908,-0.23757611,767.5824,807.0696,800.2198,767.5824,701.50183,-0.20263671875,-0.0126953125,0.99859619140625,5.1141357421875,-0.97198486328125,-4.194488525390625,1,1.0,1.0,1.0,1.0,50.00
2022-11-23 20:21:16.787,0.9592522,0.7698831,0.7929399,0.9560059,0.763948,0.35381547,0.13852504,0.924633,0.93195164,0.35402137,0.16008076,0.9834935,0.2131362,-0.11073308,-0.07728416,0.22933093,-0.13617842,-0.6456711,-0.5900908,-0.23757611,804.65204,805.4579,801.02563,799.011,820.3663,-0.20263671875,-0.0126953125,0.99859619140625,5.1141357421875,-0.97198486328125,-4.194488525390625,1,1.0,1.0,1.0,1.0,50.00
2022-11-23 20:21:16.787,0.9592522,0.7698831,0.7929399,0.9560059,0.763948,0.35381547,0.13852504,0.924633,0.93195164,0.35402137,0.16008076,0.9834935,0.2131362,-0.11073308,-0.07728416,0.22933093,-0.13617842,-0.6456711,-0.5900908,-0.23757611,816.337,807.47253,797.8022,810.293,1052.8572,-0.20263671875,-0.0126953125,0.99859619140625,5.1141357421875,-0.97198486328125,-4.194488525390625,1,1.0,1.0,1.0,1.0,50.00
2022-11-23 20:21:16.787,0.9592522,0.7698831,0.7929399,0.9560059,0.763948,0.35381547,0.13852504,0.924633,0.93195164,0.35402137,0.16008076,0.9834935,0.2131362,-0.11073308,-0.07728416,0.22933093,-0.13617842,-0.6456711,-0.5900908,-0.23757611,778.46155,806.6667,796.5934,780.87915,925.5311,-0.20263671875,-0.0126953125,0.99859619140625,5.1141357421875,-0.97198486328125,-4.194488525390625,1,1.0,1.0,1.0,1.0,50.00
2022-11-23 20:21:16.788,0.9592522,0.7698831,0.7929399,0.9560059,0.763948,0.35381547,0.13852504,0.924633,0.93195164,0.35402137,0.16008076,0.9834935,0.2131362,-0.11073308,-0.07728416,0.22933093,-0.13617842,-0.6456711,-0.5900908,-0.23757611,758.315,810.293,800.6227,771.2088,582.6374,-0.20263671875,-0.0126953125,0.99859619140625,5.1141357421875,-0.97198486328125,-4.194488525390625,1,1.0,1.0,1.0,1.0,50.00
2022-11-23 20:21:16.788,0.9592522,0.7698831,0.7929399,0.9560059,0.763948,0.35381547,0.13852504,0.924633,0.93195164,0.35402137,0.16008076,0.9834935,0.2131362,-0.11073308,-0.07728416,0.22933093,-0.13617842,-0.6456711,-0.5900908,-0.23757611,799.011,812.3077,802.23444,806.6667,684.17584,-0.20263671875,-0.0126953125,0.99859619140625,5.1141357421875,-0.97198486328125,-4.194488525390625,1,1.0,1.0,1.0,1.0,50.00
2022-11-23 20:21:16.788,0.9592522,0.7698831,0.7929399,0.9560059,0.763948,0.35381547,0.13852504,0.924633,0.93195164,0.35402137,0.16008076,0.9834935,0.2131362,-0.11073308,-0.07728416,0.22933093,-0.13617842,-0.6456711,-0.5900908,-0.23757611,834.4689,812.71063,800.2198,823.1868,918.68134,-0.20263671875,-0.0126953125,0.99859619140625,5.1141357421875,-0.97198486328125,-4.194488525390625,1,1.0,1.0,1.0,1.0,50.00
2022-11-23 20:21:16.810,0.9592522,0.7698831,0.7929399,0.9560059,0.763948,0.35381547,0.13852504,0.924633,0.93195164,0.35402137,0.16008076,0.9834935,0.2131362,-0.11073308,-0.07728416,0.22933093,-0.13617842,-0.6456711,-0.5900908,-0.23757611,805.4579,810.293,796.1905,798.20514,838.0952,-0.20263671875,-0.0126953125,0.99859619140625,5.1141357421875,-0.97198486328125,-4.194488525390625,1,1.0,1.0,1.0,1.0,50.00
2022-11-23 20:21:16.810,0.9592522,0.7698831,0.7929399,0.9560059,0.763948,0.35381547,0.13852504,0.924633,0.93195164,0.35402137,0.16008076,0.9834935,0.2131362,-0.11073308,-0.07728416,0.22933093,-0.13617842,-0.6456711,-0.5900908,-0.23757611,775.2381,811.9048,796.1905,782.49084,581.8315,-0.20263671875,-0.0126953125,0.99859619140625,5.1141357421875,-0.97198486328125,-4.194488525390625,1,1.0,1.0,1.0,1.0,50.00
2022-11-23 20:21:16.811,0.9592522,0.7698831,0.7929399,0.9560059,0.763948,0.35381547,0.13852504,0.924633,0.93195164,0.35402137,0.16008076,0.9834935,0.2131362,-0.11073308,-0.07728416,0.22933093,-0.13617842,-0.6456711,-0.5900908,-0.23757611,806.6667,816.337,799.81683,807.8755,695.05493,-0.20263671875,-0.0126953125,0.99859619140625,5.1141357421875,-0.97198486328125,-4.194488525390625,1,1.0,1.0,1.0,1.0,50.00
2022-11-23 20:21:16.811,0.9592522,0.7698831,0.7929399,0.9560059,0.763948,0.35381547,0.13852504,0.924633,0.93195164,0.35402137,0.16008076,0.9834935,0.2131362,-0.11073308,-0.07728416,0.22933093,-0.13617842,-0.6456711,-0.5900908,-0.23757611,844.1392,819.9634,800.2198,824.3956,955.7509,-0.20263671875,-0.0126953125,0.99859619140625,5.1141357421875,-0.97198486328125,-4.194488525390625,1,1.0,1.0,1.0,1.0,50.00
2022-11-23 20:21:16.811,0.9592522,0.7698831,0.7929399,0.9560059,0.763948,0.35381547,0.13852504,0.924633,0.93195164,0.35402137,0.16008076,0.9834935,0.2131362,-0.11073308,-0.07728416,0.22933093,-0.13617842,-0.6456711,-0.5900908,-0.23757611,830.4396,820.7692,797.8022,812.3077,846.55676,-0.20263671875,-0.0126953125,0.99859619140625,5.1141357421875,-0.97198486328125,-4.194488525390625,1,1.0,1.0,1.0,1.0,50.00
2022-11-23 20:21:16.811,0.9592522,0.7698831,0.7929399,0.9560059,0.763948,0.35381547,0.13852504,0.924633,0.93195164,0.35402137,0.16008076,0.9834935,0.2131362,-0.11073308,-0.07728416,0.22933093,-0.13617842,-0.6456711,-0.5900908,-0.23757611,787.72894,817.9487,796.5934,791.75824,682.1612,-0.20263671875,-0.0126953125,0.99859619140625,5.1141357421875,-0.97198486328125,-4.194488525390625,1,1.0,1.0,1.0,1.0,50.00
2022-11-23 20:21:16.812,0.9592522,0.7698831,0.7929399,0.9560059,0.763948,0.35381547,0.13852504,0.924633,0.93195164,0.35402137,0.16008076,0.9834935,0.2131362,-0.11073308,-0.07728416,0.22933093,-0.13617842,-0.6456711,-0.5900908,-0.23757611,795.38464,817.5458,797.8022,801.8315,800.6227,-0.20263671875,-0.0126953125,0.99859619140625,5.1141357421875,-0.97198486328125,-4.194488525390625,1,1.0,1.0,1.0,1.0,50.00
2022-11-23 20:21:16.812,0.9592522,0.7698831,0.7929399,0.9560059,0.763948,0.35381547,0.13852504,0.924633,0.93195164,0.35402137,0.16008076,0.9834935,0.2131362,-0.11073308,-0.07728416,0.22933093,-0.13617842,-0.6456711,-0.5900908,-0.23757611,841.7216,815.12823,798.60803,833.2601,1089.9268,-0.20263671875,-0.0126953125,0.99859619140625,5.1141357421875,-0.97198486328125,-4.194488525390625,1,1.0,1.0,1.0,1.0,50.00
2022-11-23 20:21:16.812,0.9592522,0.7698831,0.7929399,0.9560059,0.763948,0.35381547,0.13852504,0.924633,0.93195164,0.35402137,0.16008076,0.9834935,0.2131362,-0.11073308,-0.07728416,0.22933093,-0.13617842,-0.6456711,-0.5900908,-0.23757611,839.304,812.3077,799.41394,821.978,1043.5897,-0.20263671875,-0.0126953125,0.99859619140625,5.1141357421875,-0.97198486328125,-4.194488525390625,1,1.0,1.0,1.0,1.0,50.00
2022-11-23 20:21:16.812,0.9592522,0.7698831,0.7929399,0.9560059,0.763948,0.35381547,0.13852504,0.924633,0.93195164,0.35402137,0.16008076,0.9834935,0.2131362,-0.11073308,-0.07728416,0.22933093,-0.13617842,-0.6456711,-0.5900908,-0.23757611,790.14655,812.3077,797.8022,789.7436,779.2674,-0.20263671875,-0.0126953125,0.99859619140625,5.1141357421875,-0.97198486328125,-4.194488525390625,1,1.0,1.0,1.0,1.0,50.00
2022-11-23 20:21:16.812,0.9592522,0.7698831,0.7929399,0.9560059,0.763948,0.35381547,0.13852504,0.924633,0.93195164,0.35402137,0.16008076,0.9834935,0.2131362,-0.11073308,-0.07728416,0.22933093,-0.13617842,-0.6456711,-0.5900908,-0.23757611,774.83514,812.3077,799.011,790.54944,794.57874,-0.20263671875,-0.0126953125,0.99859619140625,5.1141357421875,-0.97198486328125,-4.194488525390625,1,1.0,1.0,1.0,1.0,50.00
2022-11-23 20:21:16.813,0.9592522,0.7698831,0.7929399,0.9560059,0.763948,0.35381547,0.13852504,0.924633,0.93195164,0.35402137,0.16008076,0.9834935,0.2131362,-0.11073308,-0.07728416,0.22933093,-0.13617842,-0.6456711,-0.5900908,-0.23757611,815.5311,813.5165,797.8022,817.5458,998.0586,-0.20263671875,-0.0126953125,0.99859619140625,5.1141357421875,-0.97198486328125,-4.194488525390625,1,1.0,1.0,1.0,1.0,50.00
2022-11-23 20:21:16.860,0.9592522,0.7698831,0.7929399,0.9560059,0.763948,0.35381547,0.13852504,0.924633,0.93195164,0.35402137,0.16008076,0.9834935,0.2131362,-0.11073308,-0.07728416,0.22933093,-0.13617842,-0.6456711,-0.5900908,-0.23757611,835.2747,813.1135,799.011,826.0073,896.9231,-0.1983642578125,0.00408935546875,1.00592041015625,4.628143310546875,-3.162689208984375,-1.861724853515625,1,1.0,1.0,1.0,1.0,50.00
2022-11-23 20:21:16.861,0.9592522,0.7698831,0.7929399,0.9560059,0.763948,0.35381547,0.13852504,0.924633,0.93195164,0.35402137,0.16008076,0.9834935,0.2131362,-0.11073308,-0.07728416,0.22933093,-0.13617842,-0.6456711,-0.5900908,-0.23757611,803.8461,812.3077,801.4286,799.011,737.76556,-0.1983642578125,0.00408935546875,1.00592041015625,4.628143310546875,-3.162689208984375,-1.861724853515625,1,1.0,1.0,1.0,1.0,50.00
2022-11-23 20:21:16.861,0.9592522,0.7698831,0.7929399,0.9560059,0.763948,0.35381547,0.13852504,0.924633,0.93195164,0.35402137,0.16008076,0.9834935,0.2131362,-0.11073308,-0.07728416,0.22933093,-0.13617842,-0.6456711,-0.5900908,-0.23757611,780.87915,811.50183,803.44324,786.1172,639.0476,-0.1983642578125,0.00408935546875,1.00592041015625,4.628143310546875,-3.162689208984375,-1.861724853515625,1,1.0,1.0,1.0,1.0,50.00
2022-11-23 20:21:16.861,0.9592522,0.7698831,0.7929399,0.9560059,0.763948,0.35381547,0.13852504,0.924633,0.93195164,0.35402137,0.16008076,0.9834935,0.2131362,-0.11073308,-0.07728416,0.22933093,-0.13617842,-0.6456711,-0.5900908,-0.23757611,799.81683,811.50183,807.8755,817.5458,745.42126,-0.1983642578125,0.00408935546875,1.00592041015625,4.628143310546875,-3.162689208984375,-1.861724853515625,1,1.0,1.0,1.0,1.0,50.00
2022-11-23 20:21:16.861,0.9592522,0.7698831,0.7929399,0.9560059,0.763948,0.35381547,0.13852504,0.924633,0.93195164,0.35402137,0.16008076,0.9834935,0.2131362,-0.11073308,-0.07728416,0.22933093,-0.13617842,-0.6456711,-0.5900908,-0.23757611,831.6484,814.7253,807.47253,835.6777,864.68866,-0.1983642578125,0.00408935546875,1.00592041015625,4.628143310546875,-3.162689208984375,-1.861724853515625,1,1.0,1.0,1.0,1.0,50.00
2022-11-23 20:21:16.861,0.98102134,0.9288115,0.8239533,1.0693337,0.83339334,0.46614903,0.14801633,0.99010545,0.9406795,0.37843367,0.15579586,0.9834935,0.24619895,-0.08957426,-0.0798484,0.25610828,-0.13346393,-0.6468295,-0.59892064,-0.2147369,813.1135,813.1135,807.0696,811.50183,733.3333,-0.1983642578125,0.00408935546875,1.00592041015625,4.628143310546875,-3.162689208984375,-1.861724853515625,1,1.0,1.0,1.0,1.0,50.00
2022-11-23 20:21:16.863,0.98102134,0.9288115,0.8239533,1.0693337,0.83339334,0.46614903,0.14801633,0.99010545,0.9406795,0.37843367,0.15579586,0.9834935,0.24619895,-0.08957426,-0.0798484,0.25610828,-0.13346393,-0.6468295,-0.59892064,-0.2147369,770.0,808.68134,807.8755,792.5641,841.7216,-0.1983642578125,0.00408935546875,1.00592041015625,4.628143310546875,-3.162689208984375,-1.861724853515625,1,1.0,1.0,1.0,1.0,50.00
2022-11-23 20:21:16.863,0.98102134,0.9288115,0.8239533,1.0693337,0.83339334,0.46614903,0.14801633,0.99010545,0.9406795,0.37843367,0.15579586,0.9834935,0.24619895,-0.08957426,-0.0798484,0.25610828,-0.13346393,-0.6468295,-0.59892064,-0.2147369,786.9231,804.2491,809.0842,809.4872,1062.5275,-0.1983642578125,0.00408935546875,1.00592041015625,4.628143310546875,-3.162689208984375,-1.861724853515625,1,1.0,1.0,1.0,1.0,50.00
2022-11-23 20:21:16.863,0.98102134,0.9288115,0.8239533,1.0693337,0.83339334,0.46614903,0.14801633,0.99010545,0.9406795,0.37843367,0.15579586,0.9834935,0.24619895,-0.08957426,-0.0798484,0.25610828,-0.13346393,-0.6468295,-0.59892064,-0.2147369,826.0073,798.20514,809.89014,828.8278,906.5934,-0.1983642578125,0.00408935546875,1.00592041015625,4.628143310546875,-3.162689208984375,-1.861724853515625,1,1.0,1.0,1.0,1.0,50.00
2022-11-23 20:21:16.863,0.98102134,0.9288115,0.8239533,1.0693337,0.83339334,0.46614903,0.14801633,0.99010545,0.9406795,0.37843367,0.15579586,0.9834935,0.24619895,-0.08957426,-0.0798484,0.25610828,-0.13346393,-0.6468295,-0.59892064,-0.2147369,818.3516,798.60803,807.8755,815.12823,841.31866,-0.1983642578125,0.00408935546875,1.00592041015625,4.628143310546875,-3.162689208984375,-1.861724853515625,1,1.0,1.0,1.0,1.0,50.00
2022-11-23 20:21:16.863,0.98102134,0.9288115,0.8239533,1.0693337,0.83339334,0.46614903,0.14801633,0.99010545,0.9406795,0.37843367,0.15579586,0.9834935,0.24619895,-0.08957426,-0.0798484,0.25610828,-0.13346393,-0.6468295,-0.59892064,-0.2147369,782.8938,803.0403,812.71063,792.96704,862.27106,-0.1983642578125,0.00408935546875,1.00592041015625,4.628143310546875,-3.162689208984375,-1.861724853515625,1,1.0,1.0,1.0,1.0,50.00
2022-11-23 20:21:16.864,0.98102134,0.9288115,0.8239533,1.0693337,0.83339334,0.46614903,0.14801633,0.99010545,0.9406795,0.37843367,0.15579586,0.9834935,0.24619895,-0.08957426,-0.0798484,0.25610828,-0.13346393,-0.6468295,-0.59892064,-0.2147369,780.87915,804.2491,819.15753,800.6227,817.5458,-0.1983642578125,0.00408935546875,1.00592041015625,4.628143310546875,-3.162689208984375,-1.861724853515625,1,1.0,1.0,1.0,1.0,50.00
2022-11-23 20:21:16.911,0.98102134,0.9288115,0.8239533,1.0693337,0.83339334,0.46614903,0.14801633,0.99010545,0.9406795,0.37843367,0.15579586,0.9834935,0.24619895,-0.08957426,-0.0798484,0.25610828,-0.13346393,-0.6468295,-0.59892064,-0.2147369,815.9341,802.6374,819.9634,826.4103,874.35895,-0.21453857421875,-1.8310546875E-4,0.9947509765625,4.702911376953125,-2.609405517578125,-4.5758056640625,1,1.0,1.0,1.0,1.0,50.00
2022-11-23 20:21:16.911,0.98102134,0.9288115,0.8239533,1.0693337,0.83339334,0.46614903,0.14801633,0.99010545,0.9406795,0.37843367,0.15579586,0.9834935,0.24619895,-0.08957426,-0.0798484,0.25610828,-0.13346393,-0.6468295,-0.59892064,-0.2147369,821.978,800.2198,819.5604,822.7839,997.25275,-0.21453857421875,-1.8310546875E-4,0.9947509765625,4.702911376953125,-2.609405517578125,-4.5758056640625,1,1.0,1.0,1.0,1.0,50.00
2022-11-23 20:21:16.911,0.98102134,0.9288115,0.8239533,1.0693337,0.83339334,0.46614903,0.14801633,0.99010545,0.9406795,0.37843367,0.15579586,0.9834935,0.24619895,-0.08957426,-0.0798484,0.25610828,-0.13346393,-0.6468295,-0.59892064,-0.2147369,782.49084,799.41394,817.9487,794.57874,816.337,-0.21453857421875,-1.8310546875E-4,0.9947509765625,4.702911376953125,-2.609405517578125,-4.5758056640625,1,1.0,1.0,1.0,1.0,50.00
2022-11-23 20:21:16.911,0.98102134,0.9288115,0.8239533,1.0693337,0.83339334,0.46614903,0.14801633,0.99010545,0.9406795,0.37843367,0.15579586,0.9834935,0.24619895,-0.08957426,-0.0798484,0.25610828,-0.13346393,-0.6468295,-0.59892064,-0.2147369,760.7326,796.99634,812.71063,782.49084,600.7692,-0.21453857421875,-1.8310546875E-4,0.9947509765625,4.702911376953125,-2.609405517578125,-4.5758056640625,1,1.0,1.0,1.0,1.0,50.00
2022-11-23 20:21:16.912,0.98102134,0.9288115,0.8239533,1.0693337,0.83339334,0.46614903,0.14801633,0.99010545,0.9406795,0.37843367,0.15579586,0.9834935,0.24619895,-0.08957426,-0.0798484,0.25610828,-0.13346393,-0.6468295,-0.59892064,-0.2147369,796.99634,792.5641,808.68134,803.8461,718.4249,-0.21453857421875,-1.8310546875E-4,0.9947509765625,4.702911376953125,-2.609405517578125,-4.5758056640625,1,1.0,1.0,1.0,1.0,50.00
2022-11-23 20:21:16.912,0.98102134,0.9288115,0.8239533,1.0693337,0.83339334,0.46614903,0.14801633,0.99010545,0.9406795,0.37843367,0.15579586,0.9834935,0.24619895,-0.08957426,-0.0798484,0.25610828,-0.13346393,-0.6468295,-0.59892064,-0.2147369,824.3956,792.96704,803.44324,817.5458,953.73627,-0.21453857421875,-1.8310546875E-4,0.9947509765625,4.702911376953125,-2.609405517578125,-4.5758056640625,1,1.0,1.0,1.0,1.0,50.00
2022-11-23 20:21:16.912,0.98102134,0.9288115,0.8239533,1.0693337,0.83339334,0.46614903,0.14801633,0.99010545,0.9406795,0.37843367,0.15579586,0.9834935,0.24619895,-0.08957426,-0.0798484,0.25610828,-0.13346393,-0.6468295,-0.59892064,-0.2147369,784.90845,796.99634,802.23444,785.7143,961.39197,-0.21453857421875,-1.8310546875E-4,0.9947509765625,4.702911376953125,-2.609405517578125,-4.5758056640625,1,1.0,1.0,1.0,1.0,50.00
2022-11-23 20:21:16.912,0.98102134,0.9288115,0.8239533,1.0693337,0.83339334,0.46614903,0.14801633,0.99010545,0.9406795,0.37843367,0.15579586,0.9834935,0.24619895,-0.08957426,-0.0798484,0.25610828,-0.13346393,-0.6468295,-0.59892064,-0.2147369,752.27106,799.011,801.4286,766.77655,641.06226,-0.21453857421875,-1.8310546875E-4,0.9947509765625,4.702911376953125,-2.609405517578125,-4.5758056640625,1,1.0,1.0,1.0,1.0,50.00
2022-11-23 20:21:16.912,0.98102134,0.9288115,0.8239533,1.0693337,0.83339334,0.46614903,0.14801633,0.99010545,0.9406795,0.37843367,0.15579586,0.9834935,0.24619895,-0.08957426,-0.0798484,0.25610828,-0.13346393,-0.6468295,-0.59892064,-0.2147369,786.9231,795.78754,800.2198,790.54944,589.0842,-0.21453857421875,-1.8310546875E-4,0.9947509765625,4.702911376953125,-2.609405517578125,-4.5758056640625,1,1.0,1.0,1.0,1.0,50.00
2022-11-23 20:21:16.913,0.98102134,0.9288115,0.8239533,1.0693337,0.83339334,0.46614903,0.14801633,0.99010545,0.9406795,0.37843367,0.15579586,0.9834935,0.24619895,-0.08957426,-0.0798484,0.25610828,-0.13346393,-0.6468295,-0.59892064,-0.2147369,821.978,799.41394,798.20514,809.89014,868.315,-0.21453857421875,-1.8310546875E-4,0.9947509765625,4.702911376953125,-2.609405517578125,-4.5758056640625,1,1.0,1.0,1.0,1.0,50.00
2022-11-23 20:21:16.913,0.98102134,0.9288115,0.8239533,1.0693337,0.83339334,0.46614903,0.14801633,0.99010545,0.9406795,0.37843367,0.15579586,0.9834935,0.24619895,-0.08957426,-0.0798484,0.25610828,-0.13346393,-0.6468295,-0.59892064,-0.2147369,797.8022,804.65204,795.78754,790.9524,1023.0403,-0.21453857421875,-1.8310546875E-4,0.9947509765625,4.702911376953125,-2.609405517578125,-4.5758056640625,1,1.0,1.0,1.0,1.0,50.00
2022-11-23 20:21:16.913,0.98102134,0.9288115,0.8239533,1.0693337,0.83339334,0.46614903,0.14801633,0.99010545,0.9406795,0.37843367,0.15579586,0.9834935,0.24619895,-0.08957426,-0.0798484,0.25610828,-0.13346393,-0.6468295,-0.59892064,-0.2147369,759.12085,799.81683,800.6227,767.5824,821.1722,-0.21453857421875,-1.8310546875E-4,0.9947509765625,4.702911376953125,-2.609405517578125,-4.5758056640625,1,1.0,1.0,1.0,1.0,50.00
2022-11-23 20:21:16.960,0.98102134,0.9288115,0.8239533,1.0693337,0.83339334,0.46614903,0.14801633,0.99010545,0.9406795,0.37843367,0.15579586,0.9834935,0.24619895,-0.08957426,-0.0798484,0.25610828,-0.13346393,-0.6468295,-0.59892064,-0.2147369,774.0293,798.20514,800.2198,780.4762,670.4762,-0.1944580078125,-0.01239013671875,1.00506591796875,3.90289306640625,-3.102874755859375,-9.61517333984375,1,1.0,1.0,1.0,1.0,50.00
2022-11-23 20:21:16.961,0.98102134,0.9288115,0.8239533,1.0693337,0.83339334,0.46614903,0.14801633,0.99010545,0.9406795,0.37843367,0.15579586,0.9834935,0.24619895,-0.08957426,-0.0798484,0.25610828,-0.13346393,-0.6468295,-0.59892064,-0.2147369,819.9634,803.44324,801.8315,812.71063,779.67035,-0.1944580078125,-0.01239013671875,1.00506591796875,3.90289306640625,-3.102874755859375,-9.61517333984375,1,1.0,1.0,1.0,1.0,50.00
2022-11-23 20:21:16.961,0.98102134,0.9288115,0.8239533,1.0693337,0.83339334,0.46614903,0.14801633,0.99010545,0.9406795,0.37843367,0.15579586,0.9834935,0.24619895,-0.08957426,-0.0798484,0.25610828,-0.13346393,-0.6468295,-0.59892064,-0.2147369,814.7253,801.4286,799.011,802.6374,826.8132,-0.1944580078125,-0.01239013671875,1.00506591796875,3.90289306640625,-3.102874755859375,-9.61517333984375,1,1.0,1.0,1.0,1.0,50.00
2022-11-23 20:21:16.961,0.98102134,0.9288115,0.8239533,1.0693337,0.83339334,0.46614903,0.14801633,0.99010545,0.9406795,0.37843367,0.15579586,0.9834935,0.24619895,-0.08957426,-0.0798484,0.25610828,-0.13346393,-0.6468295,-0.59892064,-0.2147369,770.80585,800.2198,796.5934,772.8205,639.0476,-0.1944580078125,-0.01239013671875,1.00506591796875,3.90289306640625,-3.102874755859375,-9.61517333984375,1,1.0,1.0,1.0,1.0,50.00
2022-11-23 20:21:16.961,0.98102134,0.9288115,0.8239533,1.0693337,0.83339334,0.46614903,0.14801633,0.99010545,0.9406795,0.37843367,0.15579586,0.9834935,0.24619895,-0.08957426,-0.0798484,0.25610828,-0.13346393,-0.6468295,-0.59892064,-0.2147369,775.64105,803.44324,797.8022,780.4762,553.22345,-0.1944580078125,-0.01239013671875,1.00506591796875,3.90289306640625,-3.102874755859375,-9.61517333984375,1,1.0,1.0,1.0,1.0,50.00
2022-11-23 20:21:16.962,0.98102134,0.9288115,0.8239533,1.0693337,0.83339334,0.46614903,0.14801633,0.99010545,0.9406795,0.37843367,0.15579586,0.9834935,0.24619895,-0.08957426,-0.0798484,0.25610828,-0.13346393,-0.6468295,-0.59892064,-0.2147369,820.7692,804.2491,797.8022,812.3077,794.9817,-0.1944580078125,-0.01239013671875,1.00506591796875,3.90289306640625,-3.102874755859375,-9.61517333984375,1,1.0,1.0,1.0,1.0,50.00
2022-11-23 20:21:16.962,0.98102134,0.9288115,0.8239533,1.0693337,0.83339334,0.46614903,0.14801633,0.99010545,0.9406795,0.37843367,0.15579586,0.9834935,0.24619895,-0.08957426,-0.0798484,0.25610828,-0.13346393,-0.6468295,-0.59892064,-0.2147369,830.84247,805.8608,800.2198,815.12823,989.19415,-0.1944580078125,-0.01239013671875,1.00506591796875,3.90289306640625,-3.102874755859375,-9.61517333984375,1,1.0,1.0,1.0,1.0,50.00
2022-11-23 20:21:16.962,0.99899006,1.052161,0.8571938,1.1575541,0.8905181,0.5676498,0.16627078,1.0480138,0.9514192,0.40505567,0.1461137,0.9834935,0.28639004,-0.05951751,-0.08350685,0.2777308,-0.13370709,-0.64851075,-0.61265147,-0.18758507,788.93774,806.6667,800.2198,780.87915,841.7216,-0.1944580078125,-0.01239013671875,1.00506591796875,3.90289306640625,-3.102874755859375,-9.61517333984375,1,1.0,1.0,1.0,1.0,50.00
2022-11-23 20:21:16.963,0.99899006,1.052161,0.8571938,1.1575541,0.8905181,0.5676498,0.16627078,1.0480138,0.9514192,0.40505567,0.1461137,0.9834935,0.28639004,-0.05951751,-0.08350685,0.2777308,-0.13370709,-0.64851075,-0.61265147,-0.18758507,770.40295,804.65204,800.6227,772.4176,700.696,-0.1944580078125,-0.01239013671875,1.00506591796875,3.90289306640625,-3.102874755859375,-9.61517333984375,1,1.0,1.0,1.0,1.0,50.00
2022-11-23 20:21:16.963,0.99899006,1.052161,0.8571938,1.1575541,0.8905181,0.5676498,0.16627078,1.0480138,0.9514192,0.40505567,0.1461137,0.9834935,0.28639004,-0.05951751,-0.08350685,0.2777308,-0.13370709,-0.64851075,-0.61265147,-0.18758507,810.696,800.6227,796.99634,800.2198,1002.49084,-0.1944580078125,-0.01239013671875,1.00506591796875,3.90289306640625,-3.102874755859375,-9.61517333984375,1,1.0,1.0,1.0,1.0,50.00
2022-11-23 20:21:16.963,0.99899006,1.052161,0.8571938,1.1575541,0.8905181,0.5676498,0.16627078,1.0480138,0.9514192,0.40505567,0.1461137,0.9834935,0.28639004,-0.05951751,-0.08350685,0.2777308,-0.13370709,-0.64851075,-0.61265147,-0.18758507,835.6777,799.011,797.8022,815.5311,1021.8315,-0.1944580078125,-0.01239013671875,1.00506591796875,3.90289306640625,-3.102874755859375,-9.61517333984375,1,1.0,1.0,1.0,1.0,50.00
2022-11-23 20:21:16.964,0.99899006,1.052161,0.8571938,1.1575541,0.8905181,0.5676498,0.16627078,1.0480138,0.9514192,0.40505567,0.1461137,0.9834935,0.28639004,-0.05951751,-0.08350685,0.2777308,-0.13370709,-0.64851075,-0.61265147,-0.18758507,803.8461,801.02563,799.011,796.5934,673.2967,-0.1944580078125,-0.01239013671875,1.00506591796875,3.90289306640625,-3.102874755859375,-9.61517333984375,1,1.0,1.0,1.0,1.0,50.00
2022-11-23 20:21:17.010,0.99899006,1.052161,0.8571938,1.1575541,0.8905181,0.5676498,0.16627078,1.0480138,0.9514192,0.40505567,0.1461137,0.9834935,0.28639004,-0.05951751,-0.08350685,0.2777308,-0.13370709,-0.64851075,-0.61265147,-0.18758507,775.64105,803.0403,797.8022,782.8938,554.43225,-0.17315673828125,-0.00738525390625,1.00457763671875,4.91973876953125,-3.03558349609375,-8.49365234375,1,1.0,1.0,1.0,1.0,50.00
2022-11-23 20:21:17.010,0.99899006,1.052161,0.8571938,1.1575541,0.8905181,0.5676498,0.16627078,1.0480138,0.9514192,0.40505567,0.1461137,0.9834935,0.28639004,-0.05951751,-0.08350685,0.2777308,-0.13370709,-0.64851075,-0.61265147,-0.18758507,799.011,804.65204,802.6374,804.65204,647.50916,-0.17315673828125,-0.00738525390625,1.00457763671875,4.91973876953125,-3.03558349609375,-8.49365234375,1,1.0,1.0,1.0,1.0,50.00
2022-11-23 20:21:17.011,0.99899006,1.052161,0.8571938,1.1575541,0.8905181,0.5676498,0.16627078,1.0480138,0.9514192,0.40505567,0.1461137,0.9834935,0.28639004,-0.05951751,-0.08350685,0.2777308,-0.13370709,-0.64851075,-0.61265147,-0.18758507,828.022,803.0403,801.4286,823.5897,787.72894,-0.17315673828125,-0.00738525390625,1.00457763671875,4.91973876953125,-3.03558349609375,-8.49365234375,1,1.0,1.0,1.0,1.0,50.00
2022-11-23 20:21:17.011,0.99899006,1.052161,0.8571938,1.1575541,0.8905181,0.5676498,0.16627078,1.0480138,0.9514192,0.40505567,0.1461137,0.9834935,0.28639004,-0.05951751,-0.08350685,0.2777308,-0.13370709,-0.64851075,-0.61265147,-0.18758507,807.0696,804.65204,803.0403,800.6227,742.6007,-0.17315673828125,-0.00738525390625,1.00457763671875,4.91973876953125,-3.03558349609375,-8.49365234375,1,1.0,1.0,1.0,1.0,50.00
2022-11-23 20:21:17.011,0.99899006,1.052161,0.8571938,1.1575541,0.8905181,0.5676498,0.16627078,1.0480138,0.9514192,0.40505567,0.1461137,0.9834935,0.28639004,-0.05951751,-0.08350685,0.2777308,-0.13370709,-0.64851075,-0.61265147,-0.18758507,770.0,804.65204,805.8608,780.87915,747.8388,-0.17315673828125,-0.00738525390625,1.00457763671875,4.91973876953125,-3.03558349609375,-8.49365234375,1,1.0,1.0,1.0,1.0,50.00
2022-11-23 20:21:17.011,0.99899006,1.052161,0.8571938,1.1575541,0.8905181,0.5676498,0.16627078,1.0480138,0.9514192,0.40505567,0.1461137,0.9834935,0.28639004,-0.05951751,-0.08350685,0.2777308,-0.13370709,-0.64851075,-0.61265147,-0.18758507,782.0879,800.6227,807.0696,791.3553,832.4542,-0.17315673828125,-0.00738525390625,1.00457763671875,4.91973876953125,-3.03558349609375,-8.49365234375,1,1.0,1.0,1.0,1.0,50.00
2022-11-23 20:21:17.011,0.99899006,1.052161,0.8571938,1.1575541,0.8905181,0.5676498,0.16627078,1.0480138,0.9514192,0.40505567,0.1461137,0.9834935,0.28639004,-0.05951751,-0.08350685,0.2777308,-0.13370709,-0.64851075,-0.61265147,-0.18758507,820.7692,799.011,813.1135,810.696,944.4689,-0.17315673828125,-0.00738525390625,1.00457763671875,4.91973876953125,-3.03558349609375,-8.49365234375,1,1.0,1.0,1.0,1.0,50.00
2022-11-23 20:21:17.012,0.99899006,1.052161,0.8571938,1.1575541,0.8905181,0.5676498,0.16627078,1.0480138,0.9514192,0.40505567,0.1461137,0.9834935,0.28639004,-0.05951751,-0.08350685,0.2777308,-0.13370709,-0.64851075,-0.61265147,-0.18758507,817.9487,799.011,812.71063,811.50183,892.49084,-0.17315673828125,-0.00738525390625,1.00457763671875,4.91973876953125,-3.03558349609375,-8.49365234375,1,1.0,1.0,1.0,1.0,50.00
2022-11-23 20:21:17.012,0.99899006,1.052161,0.8571938,1.1575541,0.8905181,0.5676498,0.16627078,1.0480138,0.9514192,0.40505567,0.1461137,0.9834935,0.28639004,-0.05951751,-0.08350685,0.2777308,-0.13370709,-0.64851075,-0.61265147,-0.18758507,776.04395,799.41394,808.68134,788.5348,745.42126,-0.17315673828125,-0.00738525390625,1.00457763671875,4.91973876953125,-3.03558349609375,-8.49365234375,1,1.0,1.0,1.0,1.0,50.00
2022-11-23 20:21:17.012,0.99899006,1.052161,0.8571938,1.1575541,0.8905181,0.5676498,0.16627078,1.0480138,0.9514192,0.40505567,0.1461137,0.9834935,0.28639004,-0.05951751,-0.08350685,0.2777308,-0.13370709,-0.64851075,-0.61265147,-0.18758507,771.6117,799.81683,806.26373,778.46155,807.0696,-0.17315673828125,-0.00738525390625,1.00457763671875,4.91973876953125,-3.03558349609375,-8.49365234375,1,1.0,1.0,1.0,1.0,50.00
2022-11-23 20:21:17.012,0.99899006,1.052161,0.8571938,1.1575541,0.8905181,0.5676498,0.16627078,1.0480138,0.9514192,0.40505567,0.1461137,0.9834935,0.28639004,-0.05951751,-0.08350685,0.2777308,-0.13370709,-0.64851075,-0.61265147,-0.18758507,811.9048,800.6227,806.6667,803.0403,840.5128,-0.17315673828125,-0.00738525390625,1.00457763671875,4.91973876953125,-3.03558349609375,-8.49365234375,1,1.0,1.0,1.0,1.0,50.00
2022-11-23 20:21:17.012,0.99899006,1.052161,0.8571938,1.1575541,0.8905181,0.5676498,0.16627078,1.0480138,0.9514192,0.40505567,0.1461137,0.9834935,0.28639004,-0.05951751,-0.08350685,0.2777308,-0.13370709,-0.64851075,-0.61265147,-0.18758507,828.4249,803.0403,811.0989,813.1135,824.7985,-0.17315673828125,-0.00738525390625,1.00457763671875,4.91973876953125,-3.03558349609375,-8.49365234375,1,1.0,1.0,1.0,1.0,50.00
2022-11-23 20:21:17.060,0.99899006,1.052161,0.8571938,1.1575541,0.8905181,0.5676498,0.16627078,1.0480138,0.9514192,0.40505567,0.1461137,0.9834935,0.28639004,-0.05951751,-0.08350685,0.2777308,-0.13370709,-0.64851075,-0.61265147,-0.18758507,789.7436,802.23444,811.0989,784.10254,724.87177,-0.17315673828125,-0.00738525390625,1.00457763671875,4.91973876953125,-3.03558349609375,-8.49365234375,1,1.0,1.0,1.0,1.0,50.00
2022-11-23 20:21:17.061,0.99899006,1.052161,0.8571938,1.1575541,0.8905181,0.5676498,0.16627078,1.0480138,0.9514192,0.40505567,0.1461137,0.9834935,0.28639004,-0.05951751,-0.08350685,0.2777308,-0.13370709,-0.64851075,-0.61265147,-0.18758507,759.5238,800.2198,810.293,772.4176,626.9597,-0.17315673828125,-0.00738525390625,1.00457763671875,4.91973876953125,-3.03558349609375,-8.49365234375,1,1.0,1.0,1.0,1.0,50.00
2022-11-23 20:21:17.061,0.99899006,1.052161,0.8571938,1.1575541,0.8905181,0.5676498,0.16627078,1.0480138,0.9514192,0.40505567,0.1461137,0.9834935,0.28639004,-0.05951751,-0.08350685,0.2777308,-0.13370709,-0.64851075,-0.61265147,-0.18758507,789.7436,797.8022,815.5311,799.41394,739.7802,-0.17315673828125,-0.00738525390625,1.00457763671875,4.91973876953125,-3.03558349609375,-8.49365234375,1,1.0,1.0,1.0,1.0,50.00
2022-11-23 20:21:17.061,0.99899006,1.052161,0.8571938,1.1575541,0.8905181,0.5676498,0.16627078,1.0480138,0.9514192,0.40505567,0.1461137,0.9834935,0.28639004,-0.05951751,-0.08350685,0.2777308,-0.13370709,-0.64851075,-0.61265147,-0.18758507,826.0073,802.23444,813.5165,819.15753,902.5641,-0.17315673828125,-0.00738525390625,1.00457763671875,4.91973876953125,-3.03558349609375,-8.49365234375,1,1.0,1.0,1.0,1.0,50.00
2022-11-23 20:21:17.061,0.99899006,1.052161,0.8571938,1.1575541,0.8905181,0.5676498,0.16627078,1.0480138,0.9514192,0.40505567,0.1461137,0.9834935,0.28639004,-0.05951751,-0.08350685,0.2777308,-0.13370709,-0.64851075,-0.61265147,-0.18758507,796.99634,807.47253,808.2784,794.17584,877.1795,-0.17315673828125,-0.00738525390625,1.00457763671875,4.91973876953125,-3.03558349609375,-8.49365234375,1,1.0,1.0,1.0,1.0,50.00
2022-11-23 20:21:17.062,0.99899006,1.052161,0.8571938,1.1575541,0.8905181,0.5676498,0.16627078,1.0480138,0.9514192,0.40505567,0.1461137,0.9834935,0.28639004,-0.05951751,-0.08350685,0.2777308,-0.13370709,-0.64851075,-0.61265147,-0.18758507,757.9121,807.0696,810.293,768.7912,797.8022,-0.17315673828125,-0.00738525390625,1.00457763671875,4.91973876953125,-3.03558349609375,-8.49365234375,1,1.0,1.0,1.0,1.0,50.00
2022-11-23 20:21:17.062,0.99899006,1.052161,0.8571938,1.1575541,0.8905181,0.5676498,0.16627078,1.0480138,0.9514192,0.40505567,0.1461137,0.9834935,0.28639004,-0.05951751,-0.08350685,0.2777308,-0.13370709,-0.64851075,-0.61265147,-0.18758507,781.28204,805.8608,809.0842,782.8938,828.8278,-0.17315673828125,-0.00738525390625,1.00457763671875,4.91973876953125,-3.03558349609375,-8.49365234375,1,1.0,1.0,1.0,1.0,50.00
2022-11-23 20:21:17.062,0.99899006,1.052161,0.8571938,1.1575541,0.8905181,0.5676498,0.16627078,1.0480138,0.9514192,0.40505567,0.1461137,0.9834935,0.28639004,-0.05951751,-0.08350685,0.2777308,-0.13370709,-0.64851075,-0.61265147,-0.18758507,814.3223,802.23444,809.89014,809.0842,878.7912,-0.17315673828125,-0.00738525390625,1.00457763671875,4.91973876953125,-3.03558349609375,-8.49365234375,1,1.0,1.0,1.0,1.0,50.00
2022-11-23 20:21:17.062,0.99899006,1.052161,0.8571938,1.1575541,0.8905181,0.5676498,0.16627078,1.0480138,0.9514192,0.40505567,0.1461137,0.9834935,0.28639004,-0.05951751,-0.08350685,0.2777308,-0.13370709,-0.64851075,-0.61265147,-0.18758507,792.96704,797.3993,809.4872,800.2198,971.8681,-0.17315673828125,-0.00738525390625,1.00457763671875,4.91973876953125,-3.03558349609375,-8.49365234375,1,1.0,1.0,1.0,1.0,50.00
2022-11-23 20:21:17.063,1.0135672,1.1266054,0.8919815,1.1776098,0.93065864,0.6351319,0.19017182,1.0657299,0.95571965,0.4267096,0.13269408,0.9834935,0.32114127,-0.03201491,-0.08805144,0.2854258,-0.13604952,-0.65068585,-0.62979907,-0.18647107,753.8828,794.9817,802.6374,766.77655,822.7839,-0.17315673828125,-0.00738525390625,1.00457763671875,4.91973876953125,-3.03558349609375,-8.49365234375,1,1.0,1.0,1.0,1.0,50.00
2022-11-23 20:21:17.064,1.0135672,1.1266054,0.8919815,1.1776098,0.93065864,0.6351319,0.19017182,1.0657299,0.95571965,0.4267096,0.13269408,0.9834935,0.32114127,-0.03201491,-0.08805144,0.2854258,-0.13604952,-0.65068585,-0.62979907,-0.18647107,766.77655,793.36993,799.41394,769.59705,550.0,-0.17315673828125,-0.00738525390625,1.00457763671875,4.91973876953125,-3.03558349609375,-8.49365234375,1,1.0,1.0,1.0,1.0,50.00
2022-11-23 20:21:17.064,1.0135672,1.1266054,0.8919815,1.1776098,0.93065864,0.6351319,0.19017182,1.0657299,0.95571965,0.4267096,0.13269408,0.9834935,0.32114127,-0.03201491,-0.08805144,0.2854258,-0.13604952,-0.65068585,-0.62979907,-0.18647107,811.0989,790.9524,803.0403,797.8022,711.1722,-0.17315673828125,-0.00738525390625,1.00457763671875,4.91973876953125,-3.03558349609375,-8.49365234375,1,1.0,1.0,1.0,1.0,50.00
2022-11-23 20:21:17.085,1.0135672,1.1266054,0.8919815,1.1776098,0.93065864,0.6351319,0.19017182,1.0657299,0.95571965,0.4267096,0.13269408,0.9834935,0.32114127,-0.03201491,-0.08805144,0.2854258,-0.13604952,-0.65068585,-0.62979907,-0.18647107,817.1429,792.1612,806.6667,801.4286,825.6044,-0.17535400390625,-0.0074462890625,1.005859375,4.68048095703125,-1.8243408203125,-5.00946044921875,1,1.0,1.0,1.0,1.0,50.00
2022-11-23 20:21:17.086,1.0135672,1.1266054,0.8919815,1.1776098,0.93065864,0.6351319,0.19017182,1.0657299,0.95571965,0.4267096,0.13269408,0.9834935,0.32114127,-0.03201491,-0.08805144,0.2854258,-0.13604952,-0.65068585,-0.62979907,-0.18647107,777.6557,796.5934,805.8608,772.8205,697.8755,-0.17535400390625,-0.0074462890625,1.005859375,4.68048095703125,-1.8243408203125,-5.00946044921875,1,1.0,1.0,1.0,1.0,50.00
2022-11-23 20:21:17.086,1.0135672,1.1266054,0.8919815,1.1776098,0.93065864,0.6351319,0.19017182,1.0657299,0.95571965,0.4267096,0.13269408,0.9834935,0.32114127,-0.03201491,-0.08805144,0.2854258,-0.13604952,-0.65068585,-0.62979907,-0.18647107,758.315,798.20514,804.2491,759.92676,591.0989,-0.17535400390625,-0.0074462890625,1.005859375,4.68048095703125,-1.8243408203125,-5.00946044921875,1,1.0,1.0,1.0,1.0,50.00
2022-11-23 20:21:17.086,1.0135672,1.1266054,0.8919815,1.1776098,0.93065864,0.6351319,0.19017182,1.0657299,0.95571965,0.4267096,0.13269408,0.9834935,0.32114127,-0.03201491,-0.08805144,0.2854258,-0.13604952,-0.65068585,-0.62979907,-0.18647107,800.6227,802.23444,805.8608,794.17584,717.619,-0.17535400390625,-0.0074462890625,1.005859375,4.68048095703125,-1.8243408203125,-5.00946044921875,1,1.0,1.0,1.0,1.0,50.00
2022-11-23 20:21:17.086,1.0135672,1.1266054,0.8919815,1.1776098,0.93065864,0.6351319,0.19017182,1.0657299,0.95571965,0.4267096,0.13269408,0.9834935,0.32114127,-0.03201491,-0.08805144,0.2854258,-0.13604952,-0.65068585,-0.62979907,-0.18647107,832.4542,803.0403,803.44324,808.2784,883.6264,-0.17535400390625,-0.0074462890625,1.005859375,4.68048095703125,-1.8243408203125,-5.00946044921875,1,1.0,1.0,1.0,1.0,50.00
2022-11-23 20:21:17.087,1.0135672,1.1266054,0.8919815,1.1776098,0.93065864,0.6351319,0.19017182,1.0657299,0.95571965,0.4267096,0.13269408,0.9834935,0.32114127,-0.03201491,-0.08805144,0.2854258,-0.13604952,-0.65068585,-0.62979907,-0.18647107,798.20514,801.02563,802.23444,780.4762,813.1135,-0.17535400390625,-0.0074462890625,1.005859375,4.68048095703125,-1.8243408203125,-5.00946044921875,1,1.0,1.0,1.0,1.0,50.00
2022-11-23 20:21:17.087,1.0135672,1.1266054,0.8919815,1.1776098,0.93065864,0.6351319,0.19017182,1.0657299,0.95571965,0.4267096,0.13269408,0.9834935,0.32114127,-0.03201491,-0.08805144,0.2854258,-0.13604952,-0.65068585,-0.62979907,-0.18647107,773.22345,800.6227,808.2784,770.80585,683.36993,-0.17535400390625,-0.0074462890625,1.005859375,4.68048095703125,-1.8243408203125,-5.00946044921875,1,1.0,1.0,1.0,1.0,50.00
2022-11-23 20:21:17.087,1.0135672,1.1266054,0.8919815,1.1776098,0.93065864,0.6351319,0.19017182,1.0657299,0.95571965,0.4267096,0.13269408,0.9834935,0.32114127,-0.03201491,-0.08805144,0.2854258,-0.13604952,-0.65068585,-0.62979907,-0.18647107,799.41394,793.36993,803.8461,791.3553,827.2161,-0.17535400390625,-0.0074462890625,1.005859375,4.68048095703125,-1.8243408203125,-5.00946044921875,1,1.0,1.0,1.0,1.0,50.00
2022-11-23 20:21:17.087,1.0135672,1.1266054,0.8919815,1.1776098,0.93065864,0.6351319,0.19017182,1.0657299,0.95571965,0.4267096,0.13269408,0.9834935,0.32114127,-0.03201491,-0.08805144,0.2854258,-0.13604952,-0.65068585,-0.62979907,-0.18647107,823.9927,791.3553,796.5934,814.3223,1186.227,-0.17535400390625,-0.0074462890625,1.005859375,4.68048095703125,-1.8243408203125,-5.00946044921875,1,1.0,1.0,1.0,1.0,50.00
2022-11-23 20:21:17.087,1.0135672,1.1266054,0.8919815,1.1776098,0.93065864,0.6351319,0.19017182,1.0657299,0.95571965,0.4267096,0.13269408,0.9834935,0.32114127,-0.03201491,-0.08805144,0.2854258,-0.13604952,-0.65068585,-0.62979907,-0.18647107,804.65204,795.78754,797.3993,800.6227,975.09155,-0.17535400390625,-0.0074462890625,1.005859375,4.68048095703125,-1.8243408203125,-5.00946044921875,1,1.0,1.0,1.0,1.0,50.00
2022-11-23 20:21:17.088,1.0135672,1.1266054,0.8919815,1.1776098,0.93065864,0.6351319,0.19017182,1.0657299,0.95571965,0.4267096,0.13269408,0.9834935,0.32114127,-0.03201491,-0.08805144,0.2854258,-0.13604952,-0.65068585,-0.62979907,-0.18647107,769.19415,795.38464,803.0403,775.64105,571.3553,-0.17535400390625,-0.0074462890625,1.005859375,4.68048095703125,-1.8243408203125,-5.00946044921875,1,1.0,1.0,1.0,1.0,50.00
2022-11-23 20:21:17.088,1.0135672,1.1266054,0.8919815,1.1776098,0.93065864,0.6351319,0.19017182,1.0657299,0.95571965,0.4267096,0.13269408,0.9834935,0.32114127,-0.03201491,-0.08805144,0.2854258,-0.13604952,-0.65068585,-0.62979907,-0.18647107,788.5348,797.3993,805.05493,791.75824,661.6117,-0.17535400390625,-0.0074462890625,1.005859375,4.68048095703125,-1.8243408203125,-5.00946044921875,1,1.0,1.0,1.0,1.0,50.00
2022-11-23 20:21:17.137,1.0135672,1.1266054,0.8919815,1.1776098,0.93065864,0.6351319,0.19017182,1.0657299,0.95571965,0.4267096,0.13269408,0.9834935,0.32114127,-0.03201491,-0.08805144,0.2854258,-0.13604952,-0.65068585,-0.62979907,-0.18647107,827.619,802.23444,806.26373,822.381,839.304,-0.17669677734375,-0.010498046875,1.0006103515625,2.5421142578125,-0.3887939453125,-1.83929443359375,1,1.0,1.0,1.0,1.0,50.00
2022-11-23 20:21:17.137,1.0135672,1.1266054,0.8919815,1.1776098,0.93065864,0.6351319,0.19017182,1.0657299,0.95571965,0.4267096,0.13269408,0.9834935,0.32114127,-0.03201491,-0.08805144,0.2854258,-0.13604952,-0.65068585,-0.62979907,-0.18647107,817.5458,802.6374,807.47253,817.9487,870.32965,-0.17669677734375,-0.010498046875,1.0006103515625,2.5421142578125,-0.3887939453125,-1.83929443359375,1,1.0,1.0,1.0,1.0,50.00
2022-11-23 20:21:17.138,1.0135672,1.1266054,0.8919815,1.1776098,0.93065864,0.6351319,0.19017182,1.0657299,0.95571965,0.4267096,0.13269408,0.9834935,0.32114127,-0.03201491,-0.08805144,0.2854258,-0.13604952,-0.65068585,-0.62979907,-0.18647107,776.4469,802.23444,803.44324,784.10254,743.8095,-0.17669677734375,-0.010498046875,1.0006103515625,2.5421142578125,-0.3887939453125,-1.83929443359375,1,1.0,1.0,1.0,1.0,50.00
2022-11-23 20:21:17.138,1.0135672,1.1266054,0.8919815,1.1776098,0.93065864,0.6351319,0.19017182,1.0657299,0.95571965,0.4267096,0.13269408,0.9834935,0.32114127,-0.03201491,-0.08805144,0.2854258,-0.13604952,-0.65068585,-0.62979907,-0.18647107,776.4469,803.8461,803.0403,781.685,687.8022,-0.17669677734375,-0.010498046875,1.0006103515625,2.5421142578125,-0.3887939453125,-1.83929443359375,1,1.0,1.0,1.0,1.0,50.00
2022-11-23 20:21:17.138,1.0135672,1.1266054,0.8919815,1.1776098,0.93065864,0.6351319,0.19017182,1.0657299,0.95571965,0.4267096,0.13269408,0.9834935,0.32114127,-0.03201491,-0.08805144,0.2854258,-0.13604952,-0.65068585,-0.62979907,-0.18647107,816.7399,807.0696,807.47253,817.1429,824.3956,-0.17669677734375,-0.010498046875,1.0006103515625,2.5421142578125,-0.3887939453125,-1.83929443359375,1,1.0,1.0,1.0,1.0,50.00
2022-11-23 20:21:17.139,1.0135672,1.1266054,0.8919815,1.1776098,0.93065864,0.6351319,0.19017182,1.0657299,0.95571965,0.4267096,0.13269408,0.9834935,0.32114127,-0.03201491,-0.08805144,0.2854258,-0.13604952,-0.65068585,-0.62979907,-0.18647107,823.9927,808.2784,807.8755,823.5897,940.4396,-0.17669677734375,-0.010498046875,1.0006103515625,2.5421142578125,-0.3887939453125,-1.83929443359375,1,1.0,1.0,1.0,1.0,50.00
2022-11-23 20:21:17.139,1.0135672,1.1266054,0.8919815,1.1776098,0.93065864,0.6351319,0.19017182,1.0657299,0.95571965,0.4267096,0.13269408,0.9834935,0.32114127,-0.03201491,-0.08805144,0.2854258,-0.13604952,-0.65068585,-0.62979907,-0.18647107,789.34064,810.293,808.68134,795.38464,784.5055,-0.17669677734375,-0.010498046875,1.0006103515625,2.5421142578125,-0.3887939453125,-1.83929443359375,1,1.0,1.0,1.0,1.0,50.00
2022-11-23 20:21:17.139,1.0135672,1.1266054,0.8919815,1.1776098,0.93065864,0.6351319,0.19017182,1.0657299,0.95571965,0.4267096,0.13269408,0.9834935,0.32114127,-0.03201491,-0.08805144,0.2854258,-0.13604952,-0.65068585,-0.62979907,-0.18647107,771.2088,808.68134,807.0696,786.9231,764.35895,-0.17669677734375,-0.010498046875,1.0006103515625,2.5421142578125,-0.3887939453125,-1.83929443359375,1,1.0,1.0,1.0,1.0,50.00
2022-11-23 20:21:17.139,1.0135672,1.1266054,0.8919815,1.1776098,0.93065864,0.6351319,0.19017182,1.0657299,0.95571965,0.4267096,0.13269408,0.9834935,0.32114127,-0.03201491,-0.08805144,0.2854258,-0.13604952,-0.65068585,-0.62979907,-0.18647107,803.0403,805.05493,804.2491,811.50183,925.12823,-0.17669677734375,-0.010498046875,1.0006103515625,2.5421142578125,-0.3887939453125,-1.83929443359375,1,1.0,1.0,1.0,1.0,50.00
2022-11-23 20:21:17.140,1.0135672,1.1266054,0.8919815,1.1776098,0.93065864,0.6351319,0.19017182,1.0657299,0.95571965,0.4267096,0.13269408,0.9834935,0.32114127,-0.03201491,-0.08805144,0.2854258,-0.13604952,-0.65068585,-0.62979907,-0.18647107,829.2308,805.8608,803.44324,819.5604,883.22345,-0.17669677734375,-0.010498046875,1.0006103515625,2.5421142578125,-0.3887939453125,-1.83929443359375,1,1.0,1.0,1.0,1.0,50.00
2022-11-23 20:21:17.140,1.0135672,1.1266054,0.8919815,1.1776098,0.93065864,0.6351319,0.19017182,1.0657299,0.95571965,0.4267096,0.13269408,0.9834935,0.32114127,-0.03201491,-0.08805144,0.2854258,-0.13604952,-0.65068585,-0.62979907,-0.18647107,801.4286,809.4872,799.41394,792.5641,830.84247,-0.17669677734375,-0.010498046875,1.0006103515625,2.5421142578125,-0.3887939453125,-1.83929443359375,1,1.0,1.0,1.0,1.0,50.00
2022-11-23 20:21:17.140,1.0222708,1.1616484,0.9635488,1.1953434,0.9574118,0.6688421,0.3244086,1.0817753,0.9622193,0.42742816,0.4855092,0.9834935,0.3441482,-0.015193654,-0.08246477,0.29598597,-0.139513,-0.6489672,-0.65188247,-0.19085906,767.5824,810.293,800.2198,776.8498,843.73627,-0.17669677734375,-0.010498046875,1.0006103515625,2.5421142578125,-0.3887939453125,-1.83929443359375,1,1.0,1.0,1.0,1.0,50.00
2022-11-23 20:21:17.185,1.0222708,1.1616484,0.9635488,1.1953434,0.9574118,0.6688421,0.3244086,1.0817753,0.9622193,0.42742816,0.4855092,0.9834935,0.3441482,-0.015193654,-0.08246477,0.29598597,-0.139513,-0.6489672,-0.65188247,-0.19085906,788.1319,807.8755,802.6374,800.2198,902.5641,-0.1982421875,-0.01312255859375,0.99542236328125,2.64678955078125,-0.560760498046875,0.1495361328125,1,1.0,1.0,1.0,1.0,50.00
