TimeStamp,Delta_TP9,Delta_AF7,Delta_AF8,Delta_TP10,Theta_TP9,Theta_AF7,Theta_AF8,Theta_TP10,Alpha_TP9,Alpha_AF7,Alpha_AF8,Alpha_TP10,Beta_TP9,Beta_AF7,Beta_AF8,Beta_TP10,Gamma_TP9,Gamma_AF7,Gamma_AF8,Gamma_TP10,RAW_TP9,RAW_AF7,RAW_AF8,RAW_TP10,AUX_RIGHT,Accelerometer_X,Accelerometer_Y,Accelerometer_Z,Gyro_X,Gyro_Y,Gyro_Z,HeadBandOn,HSI_TP9,HSI_AF7,HSI_AF8,HSI_TP10,Battery,Elements
2022-11-23 20:22:25.396,0.62725574,-0.1521253,-0.02257956,0.8574539,0.9404999,0.49983323,0.55362326,1.0083194,0.8712077,0.32565045,0.26174793,0.8095202,0.042234678,-0.26033938,-0.100345604,0.33552778,-0.17644984,-0.54779285,-0.409925,-0.06546599,778.86444,807.8755,805.8608,778.0586,619.707,-0.180908203125,-0.019775390625,0.99847412109375,2.968292236328125,0.485992431640625,-2.49725341796875,1,1.0,1.0,1.0,1.0,50.00
2022-11-23 20:22:25.397,0.62725574,-0.1521253,-0.02257956,0.8574539,0.9404999,0.49983323,0.55362326,1.0083194,0.8712077,0.32565045,0.26174793,0.8095202,0.042234678,-0.26033938,-0.100345604,0.33552778,-0.17644984,-0.54779285,-0.409925,-0.06546599,806.6667,807.47253,809.89014,792.96704,770.0,-0.180908203125,-0.019775390625,0.99847412109375,2.968292236328125,0.485992431640625,-2.49725341796875,1,1.0,1.0,1.0,1.0,50.00
2022-11-23 20:22:25.397,0.62725574,-0.1521253,-0.02257956,0.8574539,0.9404999,0.49983323,0.55362326,1.0083194,0.8712077,0.32565045,0.26174793,0.8095202,0.042234678,-0.26033938,-0.100345604,0.33552778,-0.17644984,-0.54779285,-0.409925,-0.06546599,823.9927,806.26373,803.0403,806.6667,904.57874,-0.180908203125,-0.019775390625,0.99847412109375,2.968292236328125,0.485992431640625,-2.49725341796875,1,1.0,1.0,1.0,1.0,50.00
2022-11-23 20:22:25.398,0.62725574,-0.1521253,-0.02257956,0.8574539,0.9404999,0.49983323,0.55362326,1.0083194,0.8712077,0.32565045,0.26174793,0.8095202,0.042234678,-0.26033938,-0.100345604,0.33552778,-0.17644984,-0.54779285,-0.409925,-0.06546599,799.011,809.89014,800.6227,788.1319,753.8828,-0.180908203125,-0.019775390625,0.99847412109375,2.968292236328125,0.485992431640625,-2.49725341796875,1,1.0,1.0,1.0,1.0,50.00
2022-11-23 20:22:25.398,0.62725574,-0.1521253,-0.02257956,0.8574539,0.9404999,0.49983323,0.55362326,1.0083194,0.8712077,0.32565045,0.26174793,0.8095202,0.042234678,-0.26033938,-0.100345604,0.33552778,-0.17644984,-0.54779285,-0.409925,-0.06546599,776.04395,808.68134,805.4579,770.80585,618.9011,-0.180908203125,-0.019775390625,0.99847412109375,2.968292236328125,0.485992431640625,-2.49725341796875,1,1.0,1.0,1.0,1.0,50.00
2022-11-23 20:22:25.398,0.62725574,-0.1521253,-0.02257956,0.8574539,0.9404999,0.49983323,0.55362326,1.0083194,0.8712077,0.32565045,0.26174793,0.8095202,0.042234678,-0.26033938,-0.100345604,0.33552778,-0.17644984,-0.54779285,-0.409925,-0.06546599,794.57874,804.2491,805.8608,793.36993,818.7546,-0.180908203125,-0.019775390625,0.99847412109375,2.968292236328125,0.485992431640625,-2.49725341796875,1,1.0,1.0,1.0,1.0,50.00
2022-11-23 20:22:25.399,0.62725574,-0.1521253,-0.02257956,0.8574539,0.9404999,0.49983323,0.55362326,1.0083194,0.8712077,0.32565045,0.26174793,0.8095202,0.042234678,-0.26033938,-0.100345604,0.33552778,-0.17644984,-0.54779285,-0.409925,-0.06546599,828.4249,803.8461,806.6667,821.978,972.27106,-0.180908203125,-0.019775390625,0.99847412109375,2.968292236328125,0.485992431640625,-2.49725341796875,1,1.0,1.0,1.0,1.0,50.00
2022-11-23 20:22:25.399,0.62725574,-0.1521253,-0.02257956,0.8574539,0.9404999,0.49983323,0.55362326,1.0083194,0.8712077,0.32565045,0.26174793,0.8095202,0.042234678,-0.26033938,-0.100345604,0.33552778,-0.17644984,-0.54779285,-0.409925,-0.06546599,809.0842,803.44324,799.81683,806.6667,904.57874,-0.180908203125,-0.019775390625,0.99847412109375,2.968292236328125,0.485992431640625,-2.49725341796875,1,1.0,1.0,1.0,1.0,50.00
2022-11-23 20:22:25.399,0.62725574,-0.1521253,-0.02257956,0.8574539,0.9404999,0.49983323,0.55362326,1.0083194,0.8712077,0.32565045,0.26174793,0.8095202,0.042234678,-0.26033938,-0.100345604,0.33552778,-0.17644984,-0.54779285,-0.409925,-0.06546599,773.22345,805.8608,803.44324,786.52014,673.69965,-0.180908203125,-0.019775390625,0.99847412109375,2.968292236328125,0.485992431640625,-2.49725341796875,1,1.0,1.0,1.0,1.0,50.00
2022-11-23 20:22:25.399,0.62725574,-0.1521253,-0.02257956,0.8574539,0.9404999,0.49983323,0.55362326,1.0083194,0.8712077,0.32565045,0.26174793,0.8095202,0.042234678,-0.26033938,-0.100345604,0.33552778,-0.17644984,-0.54779285,-0.409925,-0.06546599,783.2967,809.4872,808.2784,801.8315,826.4103,-0.180908203125,-0.019775390625,0.99847412109375,2.968292236328125,0.485992431640625,-2.49725341796875,1,1.0,1.0,1.0,1.0,50.00
2022-11-23 20:22:25.400,0.62725574,-0.1521253,-0.02257956,0.8574539,0.9404999,0.49983323,0.55362326,1.0083194,0.8712077,0.32565045,0.26174793,0.8095202,0.042234678,-0.26033938,-0.100345604,0.33552778,-0.17644984,-0.54779285,-0.409925,-0.06546599,821.5751,807.0696,805.05493,825.2015,1039.1575,-0.180908203125,-0.019775390625,0.99847412109375,2.968292236328125,0.485992431640625,-2.49725341796875,1,1.0,1.0,1.0,1.0,50.00
2022-11-23 20:22:25.400,0.638195,-0.1499675,-0.08681042,0.8720454,0.9412095,0.5017566,0.5278266,0.9889259,0.8705623,0.32326826,0.1935483,0.80899644,0.00812052,-0.27165565,-0.08663594,0.34727588,-0.18050791,-0.55984175,-0.4004701,-0.055754296,825.2015,804.2491,803.44324,818.7546,826.8132,-0.180908203125,-0.019775390625,0.99847412109375,2.968292236328125,0.485992431640625,-2.49725341796875,1,1.0,1.0,1.0,1.0,50.00
2022-11-23 20:22:25.433,0.638195,-0.1499675,-0.08681042,0.8720454,0.9412095,0.5017566,0.5278266,0.9889259,0.8705623,0.32326826,0.1935483,0.80899644,0.00812052,-0.27165565,-0.08663594,0.34727588,-0.18050791,-0.55984175,-0.4004701,-0.055754296,786.9231,805.05493,801.8315,794.57874,699.0842,-0.17669677734375,-0.0164794921875,1.01336669921875,3.297271728515625,-0.34393310546875,-1.188812255859375,1,1.0,1.0,1.0,1.0,50.00
2022-11-23 20:22:25.433,0.638195,-0.1499675,-0.08681042,0.8720454,0.9412095,0.5017566,0.5278266,0.9889259,0.8705623,0.32326826,0.1935483,0.80899644,0.00812052,-0.27165565,-0.08663594,0.34727588,-0.18050791,-0.55984175,-0.4004701,-0.055754296,781.28204,807.8755,802.6374,789.34064,741.79486,-0.17669677734375,-0.0164794921875,1.01336669921875,3.297271728515625,-0.34393310546875,-1.188812255859375,1,1.0,1.0,1.0,1.0,50.00
2022-11-23 20:22:25.433,0.638195,-0.1499675,-0.08681042,0.8720454,0.9412095,0.5017566,0.5278266,0.9889259,0.8705623,0.32326826,0.1935483,0.80899644,0.00812052,-0.27165565,-0.08663594,0.34727588,-0.18050791,-0.55984175,-0.4004701,-0.055754296,819.15753,804.2491,807.0696,820.7692,880.0,-0.17669677734375,-0.0164794921875,1.01336669921875,3.297271728515625,-0.34393310546875,-1.188812255859375,1,1.0,1.0,1.0,1.0,50.00
2022-11-23 20:22:25.434,0.638195,-0.1499675,-0.08681042,0.8720454,0.9412095,0.5017566,0.5278266,0.9889259,0.8705623,0.32326826,0.1935483,0.80899644,0.00812052,-0.27165565,-0.08663594,0.34727588,-0.18050791,-0.55984175,-0.4004701,-0.055754296,833.663,803.8461,811.50183,839.707,966.2271,-0.17669677734375,-0.0164794921875,1.01336669921875,3.297271728515625,-0.34393310546875,-1.188812255859375,1,1.0,1.0,1.0,1.0,50.00
2022-11-23 20:22:25.434,0.638195,-0.1499675,-0.08681042,0.8720454,0.9412095,0.5017566,0.5278266,0.9889259,0.8705623,0.32326826,0.1935483,0.80899644,0.00812052,-0.27165565,-0.08663594,0.34727588,-0.18050791,-0.55984175,-0.4004701,-0.055754296,797.3993,801.8315,807.8755,807.0696,873.95605,-0.17669677734375,-0.0164794921875,1.01336669921875,3.297271728515625,-0.34393310546875,-1.188812255859375,1,1.0,1.0,1.0,1.0,50.00
2022-11-23 20:22:25.434,0.638195,-0.1499675,-0.08681042,0.8720454,0.9412095,0.5017566,0.5278266,0.9889259,0.8705623,0.32326826,0.1935483,0.80899644,0.00812052,-0.27165565,-0.08663594,0.34727588,-0.18050791,-0.55984175,-0.4004701,-0.055754296,778.86444,800.6227,807.0696,786.52014,647.50916,-0.17669677734375,-0.0164794921875,1.01336669921875,3.297271728515625,-0.34393310546875,-1.188812255859375,1,1.0,1.0,1.0,1.0,50.00
2022-11-23 20:22:25.434,0.638195,-0.1499675,-0.08681042,0.8720454,0.9412095,0.5017566,0.5278266,0.9889259,0.8705623,0.32326826,0.1935483,0.80899644,0.00812052,-0.27165565,-0.08663594,0.34727588,-0.18050791,-0.55984175,-0.4004701,-0.055754296,806.6667,801.02563,808.2784,810.293,667.6557,-0.17669677734375,-0.0164794921875,1.01336669921875,3.297271728515625,-0.34393310546875,-1.188812255859375,1,1.0,1.0,1.0,1.0,50.00
2022-11-23 20:22:25.435,0.638195,-0.1499675,-0.08681042,0.8720454,0.9412095,0.5017566,0.5278266,0.9889259,0.8705623,0.32326826,0.1935483,0.80899644,0.00812052,-0.27165565,-0.08663594,0.34727588,-0.18050791,-0.55984175,-0.4004701,-0.055754296,827.619,796.99634,806.26373,828.8278,776.4469,-0.17669677734375,-0.0164794921875,1.01336669921875,3.297271728515625,-0.34393310546875,-1.188812255859375,1,1.0,1.0,1.0,1.0,50.00
2022-11-23 20:22:25.435,0.638195,-0.1499675,-0.08681042,0.8720454,0.9412095,0.5017566,0.5278266,0.9889259,0.8705623,0.32326826,0.1935483,0.80899644,0.00812052,-0.27165565,-0.08663594,0.34727588,-0.18050791,-0.55984175,-0.4004701,-0.055754296,807.47253,802.23444,808.68134,813.5165,782.8938,-0.17669677734375,-0.0164794921875,1.01336669921875,3.297271728515625,-0.34393310546875,-1.188812255859375,1,1.0,1.0,1.0,1.0,50.00
2022-11-23 20:22:25.435,0.638195,-0.1499675,-0.08681042,0.8720454,0.9412095,0.5017566,0.5278266,0.9889259,0.8705623,0.32326826,0.1935483,0.80899644,0.00812052,-0.27165565,-0.08663594,0.34727588,-0.18050791,-0.55984175,-0.4004701,-0.055754296,781.28204,807.0696,807.8755,794.9817,794.57874,-0.17669677734375,-0.0164794921875,1.01336669921875,3.297271728515625,-0.34393310546875,-1.188812255859375,1,1.0,1.0,1.0,1.0,50.00
2022-11-23 20:22:25.435,0.638195,-0.1499675,-0.08681042,0.8720454,0.9412095,0.5017566,0.5278266,0.9889259,0.8705623,0.32326826,0.1935483,0.80899644,0.00812052,-0.27165565,-0.08663594,0.34727588,-0.18050791,-0.55984175,-0.4004701,-0.055754296,805.8608,803.0403,806.26373,813.91943,767.5824,-0.17669677734375,-0.0164794921875,1.01336669921875,3.297271728515625,-0.34393310546875,-1.188812255859375,1,1.0,1.0,1.0,1.0,50.00
2022-11-23 20:22:25.436,0.638195,-0.1499675,-0.08681042,0.8720454,0.9412095,0.5017566,0.5278266,0.9889259,0.8705623,0.32326826,0.1935483,0.80899644,0.00812052,-0.27165565,-0.08663594,0.34727588,-0.18050791,-0.55984175,-0.4004701,-0.055754296,842.9304,800.6227,805.05493,840.5128,799.011,-0.17669677734375,-0.0164794921875,1.01336669921875,3.297271728515625,-0.34393310546875,-1.188812255859375,1,1.0,1.0,1.0,1.0,50.00
2022-11-23 20:22:25.480,0.638195,-0.1499675,-0.08681042,0.8720454,0.9412095,0.5017566,0.5278266,0.9889259,0.8705623,0.32326826,0.1935483,0.80899644,0.00812052,-0.27165565,-0.08663594,0.34727588,-0.18050791,-0.55984175,-0.4004701,-0.055754296,822.7839,803.0403,805.4579,827.619,820.7692,-0.1923828125,-0.02117919921875,0.98779296875,4.074859619140625,0.635528564453125,-0.3289794921875,1,1.0,1.0,1.0,1.0,50.00
2022-11-23 20:22:25.481,0.638195,-0.1499675,-0.08681042,0.8720454,0.9412095,0.5017566,0.5278266,0.9889259,0.8705623,0.32326826,0.1935483,0.80899644,0.00812052,-0.27165565,-0.08663594,0.34727588,-0.18050791,-0.55984175,-0.4004701,-0.055754296,780.07324,803.8461,808.2784,798.60803,708.3516,-0.1923828125,-0.02117919921875,0.98779296875,4.074859619140625,0.635528564453125,-0.3289794921875,1,1.0,1.0,1.0,1.0,50.00
2022-11-23 20:22:25.481,0.638195,-0.1499675,-0.08681042,0.8720454,0.9412095,0.5017566,0.5278266,0.9889259,0.8705623,0.32326826,0.1935483,0.80899644,0.00812052,-0.27165565,-0.08663594,0.34727588,-0.18050791,-0.55984175,-0.4004701,-0.055754296,791.75824,800.6227,805.4579,804.2491,579.41394,-0.1923828125,-0.02117919921875,0.98779296875,4.074859619140625,0.635528564453125,-0.3289794921875,1,1.0,1.0,1.0,1.0,50.00
2022-11-23 20:22:25.481,0.638195,-0.1499675,-0.08681042,0.8720454,0.9412095,0.5017566,0.5278266,0.9889259,0.8705623,0.32326826,0.1935483,0.80899644,0.00812052,-0.27165565,-0.08663594,0.34727588,-0.18050791,-0.55984175,-0.4004701,-0.055754296,832.0513,799.41394,803.8461,834.87177,751.06226,-0.1923828125,-0.02117919921875,0.98779296875,4.074859619140625,0.635528564453125,-0.3289794921875,1,1.0,1.0,1.0,1.0,50.00
2022-11-23 20:22:25.482,0.638195,-0.1499675,-0.08681042,0.8720454,0.9412095,0.5017566,0.5278266,0.9889259,0.8705623,0.32326826,0.1935483,0.80899644,0.00812052,-0.27165565,-0.08663594,0.34727588,-0.18050791,-0.55984175,-0.4004701,-0.055754296,834.4689,803.0403,805.4579,834.0659,863.0769,-0.1923828125,-0.02117919921875,0.98779296875,4.074859619140625,0.635528564453125,-0.3289794921875,1,1.0,1.0,1.0,1.0,50.00
2022-11-23 20:22:25.482,0.638195,-0.1499675,-0.08681042,0.8720454,0.9412095,0.5017566,0.5278266,0.9889259,0.8705623,0.32326826,0.1935483,0.80899644,0.00812052,-0.27165565,-0.08663594,0.34727588,-0.18050791,-0.55984175,-0.4004701,-0.055754296,790.14655,800.6227,803.0403,803.44324,746.63007,-0.1923828125,-0.02117919921875,0.98779296875,4.074859619140625,0.635528564453125,-0.3289794921875,1,1.0,1.0,1.0,1.0,50.00
2022-11-23 20:22:25.482,0.638195,-0.1499675,-0.08681042,0.8720454,0.9412095,0.5017566,0.5278266,0.9889259,0.8705623,0.32326826,0.1935483,0.80899644,0.00812052,-0.27165565,-0.08663594,0.34727588,-0.18050791,-0.55984175,-0.4004701,-0.055754296,771.6117,797.3993,798.60803,795.38464,671.28204,-0.1923828125,-0.02117919921875,0.98779296875,4.074859619140625,0.635528564453125,-0.3289794921875,1,1.0,1.0,1.0,1.0,50.00
2022-11-23 20:22:25.483,0.638195,-0.1499675,-0.08681042,0.8720454,0.9412095,0.5017566,0.5278266,0.9889259,0.8705623,0.32326826,0.1935483,0.80899644,0.00812052,-0.27165565,-0.08663594,0.34727588,-0.18050791,-0.55984175,-0.4004701,-0.055754296,811.50183,800.2198,798.60803,820.7692,732.9304,-0.1923828125,-0.02117919921875,0.98779296875,4.074859619140625,0.635528564453125,-0.3289794921875,1,1.0,1.0,1.0,1.0,50.00
2022-11-23 20:22:25.483,0.638195,-0.1499675,-0.08681042,0.8720454,0.9412095,0.5017566,0.5278266,0.9889259,0.8705623,0.32326826,0.1935483,0.80899644,0.00812052,-0.27165565,-0.08663594,0.34727588,-0.18050791,-0.55984175,-0.4004701,-0.055754296,830.84247,800.6227,798.60803,829.2308,1019.81683,-0.1923828125,-0.02117919921875,0.98779296875,4.074859619140625,0.635528564453125,-0.3289794921875,1,1.0,1.0,1.0,1.0,50.00
2022-11-23 20:22:25.483,0.638195,-0.1499675,-0.08681042,0.8720454,0.9412095,0.5017566,0.5278266,0.9889259,0.8705623,0.32326826,0.1935483,0.80899644,0.00812052,-0.27165565,-0.08663594,0.34727588,-0.18050791,-0.55984175,-0.4004701,-0.055754296,792.5641,801.8315,799.41394,804.2491,966.63007,-0.1923828125,-0.02117919921875,0.98779296875,4.074859619140625,0.635528564453125,-0.3289794921875,1,1.0,1.0,1.0,1.0,50.00
2022-11-23 20:22:25.483,0.638195,-0.1499675,-0.08681042,0.8720454,0.9412095,0.5017566,0.5278266,0.9889259,0.8705623,0.32326826,0.1935483,0.80899644,0.00812052,-0.27165565,-0.08663594,0.34727588,-0.18050791,-0.55984175,-0.4004701,-0.055754296,765.9707,802.23444,799.011,786.1172,605.2015,-0.1923828125,-0.02117919921875,0.98779296875,4.074859619140625,0.635528564453125,-0.3289794921875,1,1.0,1.0,1.0,1.0,50.00
2022-11-23 20:22:25.483,0.638195,-0.1499675,-0.08681042,0.8720454,0.9412095,0.5017566,0.5278266,0.9889259,0.8705623,0.32326826,0.1935483,0.80899644,0.00812052,-0.27165565,-0.08663594,0.34727588,-0.18050791,-0.55984175,-0.4004701,-0.055754296,797.3993,799.011,798.20514,803.0403,647.1062,-0.1923828125,-0.02117919921875,0.98779296875,4.074859619140625,0.635528564453125,-0.3289794921875,1,1.0,1.0,1.0,1.0,50.00
2022-11-23 20:22:25.530,0.638195,-0.1499675,-0.08681042,0.8720454,0.9412095,0.5017566,0.5278266,0.9889259,0.8705623,0.32326826,0.1935483,0.80899644,0.00812052,-0.27165565,-0.08663594,0.34727588,-0.18050791,-0.55984175,-0.4004701,-0.055754296,827.2161,800.2198,800.2198,815.5311,817.5458,-0.18109130859375,-0.0054931640625,1.00445556640625,5.9515380859375,-0.19439697265625,-1.218719482421875,1,1.0,1.0,1.0,1.0,50.00
2022-11-23 20:22:25.530,0.6473965,-0.1477561,-0.11402283,0.87702703,0.9339747,0.5055703,0.50545514,0.9710392,0.8703148,0.28261146,0.14089009,0.780473,-0.026679209,-0.2825437,-0.081460975,0.35161114,-0.18239215,-0.5614736,-0.3886519,-0.035885878,802.6374,802.23444,803.8461,800.2198,788.5348,-0.18109130859375,-0.0054931640625,1.00445556640625,5.9515380859375,-0.19439697265625,-1.218719482421875,1,1.0,1.0,1.0,1.0,50.00
2022-11-23 20:22:25.531,0.6473965,-0.1477561,-0.11402283,0.87702703,0.9339747,0.5055703,0.50545514,0.9710392,0.8703148,0.28261146,0.14089009,0.780473,-0.026679209,-0.2825437,-0.081460975,0.35161114,-0.18239215,-0.5614736,-0.3886519,-0.035885878,775.64105,801.8315,804.65204,777.25275,650.32965,-0.18109130859375,-0.0054931640625,1.00445556640625,5.9515380859375,-0.19439697265625,-1.218719482421875,1,1.0,1.0,1.0,1.0,50.00
2022-11-23 20:22:25.532,0.6473965,-0.1477561,-0.11402283,0.87702703,0.9339747,0.5055703,0.50545514,0.9710392,0.8703148,0.28261146,0.14089009,0.780473,-0.026679209,-0.2825437,-0.081460975,0.35161114,-0.18239215,-0.5614736,-0.3886519,-0.035885878,794.57874,799.41394,801.02563,791.75824,723.663,-0.18109130859375,-0.0054931640625,1.00445556640625,5.9515380859375,-0.19439697265625,-1.218719482421875,1,1.0,1.0,1.0,1.0,50.00
2022-11-23 20:22:25.532,0.6473965,-0.1477561,-0.11402283,0.87702703,0.9339747,0.5055703,0.50545514,0.9710392,0.8703148,0.28261146,0.14089009,0.780473,-0.026679209,-0.2825437,-0.081460975,0.35161114,-0.18239215,-0.5614736,-0.3886519,-0.035885878,829.6337,798.60803,803.8461,826.8132,936.0073,-0.18109130859375,-0.0054931640625,1.00445556640625,5.9515380859375,-0.19439697265625,-1.218719482421875,1,1.0,1.0,1.0,1.0,50.00
2022-11-23 20:22:25.532,0.6473965,-0.1477561,-0.11402283,0.87702703,0.9339747,0.5055703,0.50545514,0.9710392,0.8703148,0.28261146,0.14089009,0.780473,-0.026679209,-0.2825437,-0.081460975,0.35161114,-0.18239215,-0.5614736,-0.3886519,-0.035885878,814.3223,800.2198,807.0696,817.9487,926.7399,-0.18109130859375,-0.0054931640625,1.00445556640625,5.9515380859375,-0.19439697265625,-1.218719482421875,1,1.0,1.0,1.0,1.0,50.00
2022-11-23 20:22:25.533,0.6473965,-0.1477561,-0.11402283,0.87702703,0.9339747,0.5055703,0.50545514,0.9710392,0.8703148,0.28261146,0.14089009,0.780473,-0.026679209,-0.2825437,-0.081460975,0.35161114,-0.18239215,-0.5614736,-0.3886519,-0.035885878,775.2381,799.011,805.4579,784.5055,723.2601,-0.18109130859375,-0.0054931640625,1.00445556640625,5.9515380859375,-0.19439697265625,-1.218719482421875,1,1.0,1.0,1.0,1.0,50.00
2022-11-23 20:22:25.533,0.6473965,-0.1477561,-0.11402283,0.87702703,0.9339747,0.5055703,0.50545514,0.9710392,0.8703148,0.28261146,0.14089009,0.780473,-0.026679209,-0.2825437,-0.081460975,0.35161114,-0.18239215,-0.5614736,-0.3886519,-0.035885878,785.7143,799.41394,805.4579,789.34064,729.707,-0.18109130859375,-0.0054931640625,1.00445556640625,5.9515380859375,-0.19439697265625,-1.218719482421875,1,1.0,1.0,1.0,1.0,50.00
2022-11-23 20:22:25.533,0.6473965,-0.1477561,-0.11402283,0.87702703,0.9339747,0.5055703,0.50545514,0.9710392,0.8703148,0.28261146,0.14089009,0.780473,-0.026679209,-0.2825437,-0.081460975,0.35161114,-0.18239215,-0.5614736,-0.3886519,-0.035885878,823.9927,801.02563,804.65204,816.7399,972.27106,-0.18109130859375,-0.0054931640625,1.00445556640625,5.9515380859375,-0.19439697265625,-1.218719482421875,1,1.0,1.0,1.0,1.0,50.00
2022-11-23 20:22:25.533,0.6473965,-0.1477561,-0.11402283,0.87702703,0.9339747,0.5055703,0.50545514,0.9710392,0.8703148,0.28261146,0.14089009,0.780473,-0.026679209,-0.2825437,-0.081460975,0.35161114,-0.18239215,-0.5614736,-0.3886519,-0.035885878,835.6777,798.20514,803.8461,814.3223,886.4469,-0.18109130859375,-0.0054931640625,1.00445556640625,5.9515380859375,-0.19439697265625,-1.218719482421875,1,1.0,1.0,1.0,1.0,50.00
2022-11-23 20:22:25.534,0.6473965,-0.1477561,-0.11402283,0.87702703,0.9339747,0.5055703,0.50545514,0.9710392,0.8703148,0.28261146,0.14089009,0.780473,-0.026679209,-0.2825437,-0.081460975,0.35161114,-0.18239215,-0.5614736,-0.3886519,-0.035885878,801.4286,797.8022,804.65204,797.3993,654.35895,-0.18109130859375,-0.0054931640625,1.00445556640625,5.9515380859375,-0.19439697265625,-1.218719482421875,1,1.0,1.0,1.0,1.0,50.00
2022-11-23 20:22:25.534,0.6473965,-0.1477561,-0.11402283,0.87702703,0.9339747,0.5055703,0.50545514,0.9710392,0.8703148,0.28261146,0.14089009,0.780473,-0.026679209,-0.2825437,-0.081460975,0.35161114,-0.18239215,-0.5614736,-0.3886519,-0.035885878,784.10254,799.81683,805.8608,792.5641,596.7399,-0.18109130859375,-0.0054931640625,1.00445556640625,5.9515380859375,-0.19439697265625,-1.218719482421875,1,1.0,1.0,1.0,1.0,50.00
2022-11-23 20:22:25.557,0.6473965,-0.1477561,-0.11402283,0.87702703,0.9339747,0.5055703,0.50545514,0.9710392,0.8703148,0.28261146,0.14089009,0.780473,-0.026679209,-0.2825437,-0.081460975,0.35161114,-0.18239215,-0.5614736,-0.3886519,-0.035885878,818.7546,805.05493,803.44324,812.3077,740.58606,-0.18109130859375,-0.0054931640625,1.00445556640625,5.9515380859375,-0.19439697265625,-1.218719482421875,1,1.0,1.0,1.0,1.0,50.00
2022-11-23 20:22:25.557,0.6473965,-0.1477561,-0.11402283,0.87702703,0.9339747,0.5055703,0.50545514,0.9710392,0.8703148,0.28261146,0.14089009,0.780473,-0.026679209,-0.2825437,-0.081460975,0.35161114,-0.18239215,-0.5614736,-0.3886519,-0.035885878,839.304,806.26373,804.65204,826.8132,854.21246,-0.18109130859375,-0.0054931640625,1.00445556640625,5.9515380859375,-0.19439697265625,-1.218719482421875,1,1.0,1.0,1.0,1.0,50.00
2022-11-23 20:22:25.558,0.6473965,-0.1477561,-0.11402283,0.87702703,0.9339747,0.5055703,0.50545514,0.9710392,0.8703148,0.28261146,0.14089009,0.780473,-0.026679209,-0.2825437,-0.081460975,0.35161114,-0.18239215,-0.5614736,-0.3886519,-0.035885878,803.8461,800.2198,805.4579,806.26373,755.09155,-0.18109130859375,-0.0054931640625,1.00445556640625,5.9515380859375,-0.19439697265625,-1.218719482421875,1,1.0,1.0,1.0,1.0,50.00
2022-11-23 20:22:25.558,0.6473965,-0.1477561,-0.11402283,0.87702703,0.9339747,0.5055703,0.50545514,0.9710392,0.8703148,0.28261146,0.14089009,0.780473,-0.026679209,-0.2825437,-0.081460975,0.35161114,-0.18239215,-0.5614736,-0.3886519,-0.035885878,773.6264,798.60803,805.05493,788.93774,628.1685,-0.18109130859375,-0.0054931640625,1.00445556640625,5.9515380859375,-0.19439697265625,-1.218719482421875,1,1.0,1.0,1.0,1.0,50.00
2022-11-23 20:22:25.558,0.6473965,-0.1477561,-0.11402283,0.87702703,0.9339747,0.5055703,0.50545514,0.9710392,0.8703148,0.28261146,0.14089009,0.780473,-0.026679209,-0.2825437,-0.081460975,0.35161114,-0.18239215,-0.5614736,-0.3886519,-0.035885878,797.8022,799.011,809.89014,804.65204,747.8388,-0.18109130859375,-0.0054931640625,1.00445556640625,5.9515380859375,-0.19439697265625,-1.218719482421875,1,1.0,1.0,1.0,1.0,50.00
2022-11-23 20:22:25.559,0.6473965,-0.1477561,-0.11402283,0.87702703,0.9339747,0.5055703,0.50545514,0.9710392,0.8703148,0.28261146,0.14089009,0.780473,-0.026679209,-0.2825437,-0.081460975,0.35161114,-0.18239215,-0.5614736,-0.3886519,-0.035885878,828.8278,799.011,810.696,823.5897,891.28204,-0.18109130859375,-0.0054931640625,1.00445556640625,5.9515380859375,-0.19439697265625,-1.218719482421875,1,1.0,1.0,1.0,1.0,50.00
2022-11-23 20:22:25.559,0.6473965,-0.1477561,-0.11402283,0.87702703,0.9339747,0.5055703,0.50545514,0.9710392,0.8703148,0.28261146,0.14089009,0.780473,-0.026679209,-0.2825437,-0.081460975,0.35161114,-0.18239215,-0.5614736,-0.3886519,-0.035885878,808.68134,798.20514,804.2491,807.47253,839.304,-0.18109130859375,-0.0054931640625,1.00445556640625,5.9515380859375,-0.19439697265625,-1.218719482421875,1,1.0,1.0,1.0,1.0,50.00
2022-11-23 20:22:25.559,0.6473965,-0.1477561,-0.11402283,0.87702703,0.9339747,0.5055703,0.50545514,0.9710392,0.8703148,0.28261146,0.14089009,0.780473,-0.026679209,-0.2825437,-0.081460975,0.35161114,-0.18239215,-0.5614736,-0.3886519,-0.035885878,766.77655,802.23444,799.011,779.2674,938.4249,-0.18109130859375,-0.0054931640625,1.00445556640625,5.9515380859375,-0.19439697265625,-1.218719482421875,1,1.0,1.0,1.0,1.0,50.00
2022-11-23 20:22:25.559,0.6473965,-0.1477561,-0.11402283,0.87702703,0.9339747,0.5055703,0.50545514,0.9710392,0.8703148,0.28261146,0.14089009,0.780473,-0.026679209,-0.2825437,-0.081460975,0.35161114,-0.18239215,-0.5614736,-0.3886519,-0.035885878,776.8498,800.6227,802.23444,789.7436,982.3443,-0.18109130859375,-0.0054931640625,1.00445556640625,5.9515380859375,-0.19439697265625,-1.218719482421875,1,1.0,1.0,1.0,1.0,50.00
2022-11-23 20:22:25.560,0.6473965,-0.1477561,-0.11402283,0.87702703,0.9339747,0.5055703,0.50545514,0.9710392,0.8703148,0.28261146,0.14089009,0.780473,-0.026679209,-0.2825437,-0.081460975,0.35161114,-0.18239215,-0.5614736,-0.3886519,-0.035885878,816.7399,794.57874,802.23444,813.91943,894.10254,-0.18109130859375,-0.0054931640625,1.00445556640625,5.9515380859375,-0.19439697265625,-1.218719482421875,1,1.0,1.0,1.0,1.0,50.00
2022-11-23 20:22:25.560,0.6473965,-0.1477561,-0.11402283,0.87702703,0.9339747,0.5055703,0.50545514,0.9710392,0.8703148,0.28261146,0.14089009,0.780473,-0.026679209,-0.2825437,-0.081460975,0.35161114,-0.18239215,-0.5614736,-0.3886519,-0.035885878,815.9341,795.78754,800.2198,808.68134,960.989,-0.18109130859375,-0.0054931640625,1.00445556640625,5.9515380859375,-0.19439697265625,-1.218719482421875,1,1.0,1.0,1.0,1.0,50.00
2022-11-23 20:22:25.560,0.6473965,-0.1477561,-0.11402283,0.87702703,0.9339747,0.5055703,0.50545514,0.9710392,0.8703148,0.28261146,0.14089009,0.780473,-0.026679209,-0.2825437,-0.081460975,0.35161114,-0.18239215,-0.5614736,-0.3886519,-0.035885878,778.86444,801.02563,802.6374,787.72894,805.4579,-0.18109130859375,-0.0054931640625,1.00445556640625,5.9515380859375,-0.19439697265625,-1.218719482421875,1,1.0,1.0,1.0,1.0,50.00
2022-11-23 20:22:25.649,0.6473965,-0.1477561,-0.11402283,0.87702703,0.9339747,0.5055703,0.50545514,0.9710392,0.8703148,0.28261146,0.14089009,0.780473,-0.026679209,-0.2825437,-0.081460975,0.35161114,-0.18239215,-0.5614736,-0.3886519,-0.035885878,774.0293,803.0403,807.0696,788.93774,607.2161,-0.17633056640625,0.00872802734375,1.00347900390625,6.29547119140625,-0.19439697265625,2.489776611328125,1,1.0,1.0,1.0,1.0,50.00
2022-11-23 20:22:25.649,0.6473965,-0.1477561,-0.11402283,0.87702703,0.9339747,0.5055703,0.50545514,0.9710392,0.8703148,0.28261146,0.14089009,0.780473,-0.026679209,-0.2825437,-0.081460975,0.35161114,-0.18239215,-0.5614736,-0.3886519,-0.035885878,811.50183,805.4579,805.05493,809.0842,737.3626,-0.17633056640625,0.00872802734375,1.00347900390625,6.29547119140625,-0.19439697265625,2.489776611328125,1,1.0,1.0,1.0,1.0,50.00
2022-11-23 20:22:25.650,0.6473965,-0.1477561,-0.11402283,0.87702703,0.9339747,0.5055703,0.50545514,0.9710392,0.8703148,0.28261146,0.14089009,0.780473,-0.026679209,-0.2825437,-0.081460975,0.35161114,-0.18239215,-0.5614736,-0.3886519,-0.035885878,820.7692,805.4579,803.0403,817.1429,880.80585,-0.17633056640625,0.00872802734375,1.00347900390625,6.29547119140625,-0.19439697265625,2.489776611328125,1,1.0,1.0,1.0,1.0,50.00
2022-11-23 20:22:25.650,0.65375674,-0.14091457,-0.112298556,0.87649673,0.9136592,0.5016487,0.48279443,0.95321584,0.86906093,0.23300318,0.13874003,0.7101328,-0.048297934,-0.28876743,-0.08457348,0.3535254,-0.17280631,-0.5492862,-0.38201332,-0.012552113,782.8938,803.44324,805.05493,794.9817,760.7326,-0.17633056640625,0.00872802734375,1.00347900390625,6.29547119140625,-0.19439697265625,2.489776611328125,1,1.0,1.0,1.0,1.0,50.00
2022-11-23 20:22:25.651,0.65375674,-0.14091457,-0.112298556,0.87649673,0.9136592,0.5016487,0.48279443,0.95321584,0.86906093,0.23300318,0.13874003,0.7101328,-0.048297934,-0.28876743,-0.08457348,0.3535254,-0.17280631,-0.5492862,-0.38201332,-0.012552113,760.7326,804.2491,804.65204,778.0586,652.3443,-0.17633056640625,0.00872802734375,1.00347900390625,6.29547119140625,-0.19439697265625,2.489776611328125,1,1.0,1.0,1.0,1.0,50.00
2022-11-23 20:22:25.652,0.65375674,-0.14091457,-0.112298556,0.87649673,0.9136592,0.5016487,0.48279443,0.95321584,0.86906093,0.23300318,0.13874003,0.7101328,-0.048297934,-0.28876743,-0.08457348,0.3535254,-0.17280631,-0.5492862,-0.38201332,-0.012552113,792.5641,807.47253,809.4872,800.6227,770.0,-0.17633056640625,0.00872802734375,1.00347900390625,6.29547119140625,-0.19439697265625,2.489776611328125,1,1.0,1.0,1.0,1.0,50.00
2022-11-23 20:22:25.652,0.65375674,-0.14091457,-0.112298556,0.87649673,0.9136592,0.5016487,0.48279443,0.95321584,0.86906093,0.23300318,0.13874003,0.7101328,-0.048297934,-0.28876743,-0.08457348,0.3535254,-0.17280631,-0.5492862,-0.38201332,-0.012552113,824.3956,808.68134,807.8755,817.9487,1005.31134,-0.17633056640625,0.00872802734375,1.00347900390625,6.29547119140625,-0.19439697265625,2.489776611328125,1,1.0,1.0,1.0,1.0,50.00
2022-11-23 20:22:25.652,0.65375674,-0.14091457,-0.112298556,0.87649673,0.9136592,0.5016487,0.48279443,0.95321584,0.86906093,0.23300318,0.13874003,0.7101328,-0.048297934,-0.28876743,-0.08457348,0.3535254,-0.17280631,-0.5492862,-0.38201332,-0.012552113,796.5934,808.2784,800.2198,802.6374,1187.4359,-0.17633056640625,0.00872802734375,1.00347900390625,6.29547119140625,-0.19439697265625,2.489776611328125,1,1.0,1.0,1.0,1.0,50.00
2022-11-23 20:22:25.653,0.65375674,-0.14091457,-0.112298556,0.87649673,0.9136592,0.5016487,0.48279443,0.95321584,0.86906093,0.23300318,0.13874003,0.7101328,-0.048297934,-0.28876743,-0.08457348,0.3535254,-0.17280631,-0.5492862,-0.38201332,-0.012552113,767.5824,805.4579,800.2198,780.07324,899.7436,-0.17633056640625,0.00872802734375,1.00347900390625,6.29547119140625,-0.19439697265625,2.489776611328125,1,1.0,1.0,1.0,1.0,50.00
2022-11-23 20:22:25.653,0.65375674,-0.14091457,-0.112298556,0.87649673,0.9136592,0.5016487,0.48279443,0.95321584,0.86906093,0.23300318,0.13874003,0.7101328,-0.048297934,-0.28876743,-0.08457348,0.3535254,-0.17280631,-0.5492862,-0.38201332,-0.012552113,790.9524,802.23444,804.2491,791.3553,666.4469,-0.17633056640625,0.00872802734375,1.00347900390625,6.29547119140625,-0.19439697265625,2.489776611328125,1,1.0,1.0,1.0,1.0,50.00
2022-11-23 20:22:25.653,0.65375674,-0.14091457,-0.112298556,0.87649673,0.9136592,0.5016487,0.48279443,0.95321584,0.86906093,0.23300318,0.13874003,0.7101328,-0.048297934,-0.28876743,-0.08457348,0.3535254,-0.17280631,-0.5492862,-0.38201332,-0.012552113,818.3516,801.4286,802.6374,811.0989,825.6044,-0.17633056640625,0.00872802734375,1.00347900390625,6.29547119140625,-0.19439697265625,2.489776611328125,1,1.0,1.0,1.0,1.0,50.00
2022-11-23 20:22:25.653,0.65375674,-0.14091457,-0.112298556,0.87649673,0.9136592,0.5016487,0.48279443,0.95321584,0.86906093,0.23300318,0.13874003,0.7101328,-0.048297934,-0.28876743,-0.08457348,0.3535254,-0.17280631,-0.5492862,-0.38201332,-0.012552113,803.0403,802.6374,798.60803,795.78754,845.34796,-0.17633056640625,0.00872802734375,1.00347900390625,6.29547119140625,-0.19439697265625,2.489776611328125,1,1.0,1.0,1.0,1.0,50.00
2022-11-23 20:22:25.676,0.65375674,-0.14091457,-0.112298556,0.87649673,0.9136592,0.5016487,0.48279443,0.95321584,0.86906093,0.23300318,0.13874003,0.7101328,-0.048297934,-0.28876743,-0.08457348,0.3535254,-0.17280631,-0.5492862,-0.38201332,-0.012552113,770.0,804.2491,796.99634,772.4176,635.42126,-0.18035888671875,0.00567626953125,1.00970458984375,2.594451904296875,-2.75146484375,3.2000732421875,1,1.0,1.0,1.0,1.0,50.00
2022-11-23 20:22:25.677,0.65375674,-0.14091457,-0.112298556,0.87649673,0.9136592,0.5016487,0.48279443,0.95321584,0.86906093,0.23300318,0.13874003,0.7101328,-0.048297934,-0.28876743,-0.08457348,0.3535254,-0.17280631,-0.5492862,-0.38201332,-0.012552113,784.90845,805.8608,798.60803,786.1172,608.4249,-0.18035888671875,0.00567626953125,1.00970458984375,2.594451904296875,-2.75146484375,3.2000732421875,1,1.0,1.0,1.0,1.0,50.00
2022-11-23 20:22:25.677,0.65375674,-0.14091457,-0.112298556,0.87649673,0.9136592,0.5016487,0.48279443,0.95321584,0.86906093,0.23300318,0.13874003,0.7101328,-0.048297934,-0.28876743,-0.08457348,0.3535254,-0.17280631,-0.5492862,-0.38201332,-0.012552113,825.6044,809.0842,805.05493,817.5458,790.9524,-0.18035888671875,0.00567626953125,1.00970458984375,2.594451904296875,-2.75146484375,3.2000732421875,1,1.0,1.0,1.0,1.0,50.00
2022-11-23 20:22:25.677,0.65375674,-0.14091457,-0.112298556,0.87649673,0.9136592,0.5016487,0.48279443,0.95321584,0.86906093,0.23300318,0.13874003,0.7101328,-0.048297934,-0.28876743,-0.08457348,0.3535254,-0.17280631,-0.5492862,-0.38201332,-0.012552113,828.8278,809.89014,810.293,815.9341,836.4835,-0.18035888671875,0.00567626953125,1.00970458984375,2.594451904296875,-2.75146484375,3.2000732421875,1,1.0,1.0,1.0,1.0,50.00
2022-11-23 20:22:25.678,0.65375674,-0.14091457,-0.112298556,0.87649673,0.9136592,0.5016487,0.48279443,0.95321584,0.86906093,0.23300318,0.13874003,0.7101328,-0.048297934,-0.28876743,-0.08457348,0.3535254,-0.17280631,-0.5492862,-0.38201332,-0.012552113,790.54944,807.0696,809.89014,788.93774,669.67035,-0.18035888671875,0.00567626953125,1.00970458984375,2.594451904296875,-2.75146484375,3.2000732421875,1,1.0,1.0,1.0,1.0,50.00
2022-11-23 20:22:25.678,0.65375674,-0.14091457,-0.112298556,0.87649673,0.9136592,0.5016487,0.48279443,0.95321584,0.86906093,0.23300318,0.13874003,0.7101328,-0.048297934,-0.28876743,-0.08457348,0.3535254,-0.17280631,-0.5492862,-0.38201332,-0.012552113,779.2674,807.47253,805.05493,781.685,666.4469,-0.18035888671875,0.00567626953125,1.00970458984375,2.594451904296875,-2.75146484375,3.2000732421875,1,1.0,1.0,1.0,1.0,50.00
2022-11-23 20:22:25.678,0.65375674,-0.14091457,-0.112298556,0.87649673,0.9136592,0.5016487,0.48279443,0.95321584,0.86906093,0.23300318,0.13874003,0.7101328,-0.048297934,-0.28876743,-0.08457348,0.3535254,-0.17280631,-0.5492862,-0.38201332,-0.012552113,815.12823,806.6667,806.6667,809.89014,1035.9341,-0.18035888671875,0.00567626953125,1.00970458984375,2.594451904296875,-2.75146484375,3.2000732421875,1,1.0,1.0,1.0,1.0,50.00
2022-11-23 20:22:25.679,0.65375674,-0.14091457,-0.112298556,0.87649673,0.9136592,0.5016487,0.48279443,0.95321584,0.86906093,0.23300318,0.13874003,0.7101328,-0.048297934,-0.28876743,-0.08457348,0.3535254,-0.17280631,-0.5492862,-0.38201332,-0.012552113,825.6044,807.8755,807.0696,813.5165,1049.2307,-0.18035888671875,0.00567626953125,1.00970458984375,2.594451904296875,-2.75146484375,3.2000732421875,1,1.0,1.0,1.0,1.0,50.00
2022-11-23 20:22:25.679,0.65375674,-0.14091457,-0.112298556,0.87649673,0.9136592,0.5016487,0.48279443,0.95321584,0.86906093,0.23300318,0.13874003,0.7101328,-0.048297934,-0.28876743,-0.08457348,0.3535254,-0.17280631,-0.5492862,-0.38201332,-0.012552113,792.1612,811.9048,803.8461,782.8938,683.7729,-0.18035888671875,0.00567626953125,1.00970458984375,2.594451904296875,-2.75146484375,3.2000732421875,1,1.0,1.0,1.0,1.0,50.00
2022-11-23 20:22:25.679,0.65375674,-0.14091457,-0.112298556,0.87649673,0.9136592,0.5016487,0.48279443,0.95321584,0.86906093,0.23300318,0.13874003,0.7101328,-0.048297934,-0.28876743,-0.08457348,0.3535254,-0.17280631,-0.5492862,-0.38201332,-0.012552113,773.6264,807.47253,803.0403,783.2967,585.4579,-0.18035888671875,0.00567626953125,1.00970458984375,2.594451904296875,-2.75146484375,3.2000732421875,1,1.0,1.0,1.0,1.0,50.00
2022-11-23 20:22:25.679,0.65375674,-0.14091457,-0.112298556,0.87649673,0.9136592,0.5016487,0.48279443,0.95321584,0.86906093,0.23300318,0.13874003,0.7101328,-0.048297934,-0.28876743,-0.08457348,0.3535254,-0.17280631,-0.5492862,-0.38201332,-0.012552113,802.6374,802.6374,805.05493,810.293,790.54944,-0.18035888671875,0.00567626953125,1.00970458984375,2.594451904296875,-2.75146484375,3.2000732421875,1,1.0,1.0,1.0,1.0,50.00
2022-11-23 20:22:25.680,0.65375674,-0.14091457,-0.112298556,0.87649673,0.9136592,0.5016487,0.48279443,0.95321584,0.86906093,0.23300318,0.13874003,0.7101328,-0.048297934,-0.28876743,-0.08457348,0.3535254,-0.17280631,-0.5492862,-0.38201332,-0.012552113,830.0366,804.65204,807.8755,821.5751,876.77655,-0.18035888671875,0.00567626953125,1.00970458984375,2.594451904296875,-2.75146484375,3.2000732421875,1,1.0,1.0,1.0,1.0,50.00
2022-11-23 20:22:25.730,0.65375674,-0.14091457,-0.112298556,0.87649673,0.9136592,0.5016487,0.48279443,0.95321584,0.86906093,0.23300318,0.13874003,0.7101328,-0.048297934,-0.28876743,-0.08457348,0.3535254,-0.17280631,-0.5492862,-0.38201332,-0.012552113,804.65204,807.0696,807.8755,805.05493,701.9048,-0.17919921875,-0.0120849609375,1.00164794921875,1.143951416015625,-0.58319091796875,-0.515899658203125,1,1.0,1.0,1.0,1.0,50.00
2022-11-23 20:22:25.730,0.65375674,-0.14091457,-0.112298556,0.87649673,0.9136592,0.5016487,0.48279443,0.95321584,0.86906093,0.23300318,0.13874003,0.7101328,-0.048297934,-0.28876743,-0.08457348,0.3535254,-0.17280631,-0.5492862,-0.38201332,-0.012552113,772.01465,805.8608,807.0696,787.326,647.50916,-0.17919921875,-0.0120849609375,1.00164794921875,1.143951416015625,-0.58319091796875,-0.515899658203125,1,1.0,1.0,1.0,1.0,50.00
2022-11-23 20:22:25.731,0.65375674,-0.14091457,-0.112298556,0.87649673,0.9136592,0.5016487,0.48279443,0.95321584,0.86906093,0.23300318,0.13874003,0.7101328,-0.048297934,-0.28876743,-0.08457348,0.3535254,-0.17280631,-0.5492862,-0.38201332,-0.012552113,798.20514,806.6667,808.2784,798.20514,795.38464,-0.17919921875,-0.0120849609375,1.00164794921875,1.143951416015625,-0.58319091796875,-0.515899658203125,1,1.0,1.0,1.0,1.0,50.00
2022-11-23 20:22:25.731,0.65375674,-0.14091457,-0.112298556,0.87649673,0.9136592,0.5016487,0.48279443,0.95321584,0.86906093,0.23300318,0.13874003,0.7101328,-0.048297934,-0.28876743,-0.08457348,0.3535254,-0.17280631,-0.5492862,-0.38201332,-0.012552113,832.4542,805.05493,807.0696,819.5604,878.3883,-0.17919921875,-0.0120849609375,1.00164794921875,1.143951416015625,-0.58319091796875,-0.515899658203125,1,1.0,1.0,1.0,1.0,50.00
2022-11-23 20:22:25.731,0.65375674,-0.14091457,-0.112298556,0.87649673,0.9136592,0.5016487,0.48279443,0.95321584,0.86906093,0.23300318,0.13874003,0.7101328,-0.048297934,-0.28876743,-0.08457348,0.3535254,-0.17280631,-0.5492862,-0.38201332,-0.012552113,817.9487,805.4579,801.4286,808.68134,830.0366,-0.17919921875,-0.0120849609375,1.00164794921875,1.143951416015625,-0.58319091796875,-0.515899658203125,1,1.0,1.0,1.0,1.0,50.00
2022-11-23 20:22:25.731,0.6546707,-0.1373612,-0.10581637,0.8765757,0.87436837,0.4795043,0.44914266,0.92891204,0.80824846,0.2127538,0.1383851,0.6436561,-0.050063152,-0.28753343,-0.09451047,0.35871395,-0.15256348,-0.52893764,-0.38761938,0.0030795038,783.69965,806.26373,799.81683,782.0879,841.31866,-0.17919921875,-0.0120849609375,1.00164794921875,1.143951416015625,-0.58319091796875,-0.515899658203125,1,1.0,1.0,1.0,1.0,50.00
2022-11-23 20:22:25.733,0.6546707,-0.1373612,-0.10581637,0.8765757,0.87436837,0.4795043,0.44914266,0.92891204,0.80824846,0.2127538,0.1383851,0.6436561,-0.050063152,-0.28753343,-0.09451047,0.35871395,-0.15256348,-0.52893764,-0.38761938,0.0030795038,786.1172,807.8755,806.26373,786.1172,900.54944,-0.17919921875,-0.0120849609375,1.00164794921875,1.143951416015625,-0.58319091796875,-0.515899658203125,1,1.0,1.0,1.0,1.0,50.00
2022-11-23 20:22:25.733,0.6546707,-0.1373612,-0.10581637,0.8765757,0.87436837,0.4795043,0.44914266,0.92891204,0.80824846,0.2127538,0.1383851,0.6436561,-0.050063152,-0.28753343,-0.09451047,0.35871395,-0.15256348,-0.52893764,-0.38761938,0.0030795038,818.7546,810.696,807.47253,809.4872,831.2454,-0.17919921875,-0.0120849609375,1.00164794921875,1.143951416015625,-0.58319091796875,-0.515899658203125,1,1.0,1.0,1.0,1.0,50.00
2022-11-23 20:22:25.733,0.6546707,-0.1373612,-0.10581637,0.8765757,0.87436837,0.4795043,0.44914266,0.92891204,0.80824846,0.2127538,0.1383851,0.6436561,-0.050063152,-0.28753343,-0.09451047,0.35871395,-0.15256348,-0.52893764,-0.38761938,0.0030795038,823.1868,810.293,809.89014,809.4872,810.293,-0.17919921875,-0.0120849609375,1.00164794921875,1.143951416015625,-0.58319091796875,-0.515899658203125,1,1.0,1.0,1.0,1.0,50.00
2022-11-23 20:22:25.734,0.6546707,-0.1373612,-0.10581637,0.8765757,0.87436837,0.4795043,0.44914266,0.92891204,0.80824846,0.2127538,0.1383851,0.6436561,-0.050063152,-0.28753343,-0.09451047,0.35871395,-0.15256348,-0.52893764,-0.38761938,0.0030795038,793.36993,809.89014,815.5311,791.3553,797.3993,-0.17919921875,-0.0120849609375,1.00164794921875,1.143951416015625,-0.58319091796875,-0.515899658203125,1,1.0,1.0,1.0,1.0,50.00
2022-11-23 20:22:25.734,0.6546707,-0.1373612,-0.10581637,0.8765757,0.87436837,0.4795043,0.44914266,0.92891204,0.80824846,0.2127538,0.1383851,0.6436561,-0.050063152,-0.28753343,-0.09451047,0.35871395,-0.15256348,-0.52893764,-0.38761938,0.0030795038,782.0879,811.50183,815.12823,789.7436,726.8865,-0.17919921875,-0.0120849609375,1.00164794921875,1.143951416015625,-0.58319091796875,-0.515899658203125,1,1.0,1.0,1.0,1.0,50.00
2022-11-23 20:22:25.734,0.6546707,-0.1373612,-0.10581637,0.8765757,0.87436837,0.4795043,0.44914266,0.92891204,0.80824846,0.2127538,0.1383851,0.6436561,-0.050063152,-0.28753343,-0.09451047,0.35871395,-0.15256348,-0.52893764,-0.38761938,0.0030795038,814.3223,811.0989,811.0989,816.337,735.7509,-0.17919921875,-0.0120849609375,1.00164794921875,1.143951416015625,-0.58319091796875,-0.515899658203125,1,1.0,1.0,1.0,1.0,50.00
2022-11-23 20:22:25.756,0.6546707,-0.1373612,-0.10581637,0.8765757,0.87436837,0.4795043,0.44914266,0.92891204,0.80824846,0.2127538,0.1383851,0.6436561,-0.050063152,-0.28753343,-0.09451047,0.35871395,-0.15256348,-0.52893764,-0.38761938,0.0030795038,833.2601,807.47253,807.47253,825.2015,913.44324,-0.186767578125,-0.01666259765625,1.00433349609375,2.332763671875,1.973876953125,-1.24114990234375,1,1.0,1.0,1.0,1.0,50.00
2022-11-23 20:22:25.756,0.6546707,-0.1373612,-0.10581637,0.8765757,0.87436837,0.4795043,0.44914266,0.92891204,0.80824846,0.2127538,0.1383851,0.6436561,-0.050063152,-0.28753343,-0.09451047,0.35871395,-0.15256348,-0.52893764,-0.38761938,0.0030795038,805.8608,810.293,808.2784,800.6227,965.0183,-0.186767578125,-0.01666259765625,1.00433349609375,2.332763671875,1.973876953125,-1.24114990234375,1,1.0,1.0,1.0,1.0,50.00
2022-11-23 20:22:25.757,0.6546707,-0.1373612,-0.10581637,0.8765757,0.87436837,0.4795043,0.44914266,0.92891204,0.80824846,0.2127538,0.1383851,0.6436561,-0.050063152,-0.28753343,-0.09451047,0.35871395,-0.15256348,-0.52893764,-0.38761938,0.0030795038,782.0879,809.4872,812.71063,787.72894,739.7802,-0.186767578125,-0.01666259765625,1.00433349609375,2.332763671875,1.973876953125,-1.24114990234375,1,1.0,1.0,1.0,1.0,50.00
2022-11-23 20:22:25.757,0.6546707,-0.1373612,-0.10581637,0.8765757,0.87436837,0.4795043,0.44914266,0.92891204,0.80824846,0.2127538,0.1383851,0.6436561,-0.050063152,-0.28753343,-0.09451047,0.35871395,-0.15256348,-0.52893764,-0.38761938,0.0030795038,803.44324,803.0403,815.12823,818.3516,688.20514,-0.186767578125,-0.01666259765625,1.00433349609375,2.332763671875,1.973876953125,-1.24114990234375,1,1.0,1.0,1.0,1.0,50.00
2022-11-23 20:22:25.757,0.6546707,-0.1373612,-0.10581637,0.8765757,0.87436837,0.4795043,0.44914266,0.92891204,0.80824846,0.2127538,0.1383851,0.6436561,-0.050063152,-0.28753343,-0.09451047,0.35871395,-0.15256348,-0.52893764,-0.38761938,0.0030795038,843.73627,805.05493,810.293,853.8095,834.87177,-0.186767578125,-0.01666259765625,1.00433349609375,2.332763671875,1.973876953125,-1.24114990234375,1,1.0,1.0,1.0,1.0,50.00
2022-11-23 20:22:25.757,0.6546707,-0.1373612,-0.10581637,0.8765757,0.87436837,0.4795043,0.44914266,0.92891204,0.80824846,0.2127538,0.1383851,0.6436561,-0.050063152,-0.28753343,-0.09451047,0.35871395,-0.15256348,-0.52893764,-0.38761938,0.0030795038,826.0073,810.696,799.011,821.1722,906.1905,-0.186767578125,-0.01666259765625,1.00433349609375,2.332763671875,1.973876953125,-1.24114990234375,1,1.0,1.0,1.0,1.0,50.00
2022-11-23 20:22:25.758,0.6546707,-0.1373612,-0.10581637,0.8765757,0.87436837,0.4795043,0.44914266,0.92891204,0.80824846,0.2127538,0.1383851,0.6436561,-0.050063152,-0.28753343,-0.09451047,0.35871395,-0.15256348,-0.52893764,-0.38761938,0.0030795038,777.25275,815.9341,794.9817,777.25275,767.98535,-0.186767578125,-0.01666259765625,1.00433349609375,2.332763671875,1.973876953125,-1.24114990234375,1,1.0,1.0,1.0,1.0,50.00
2022-11-23 20:22:25.758,0.6546707,-0.1373612,-0.10581637,0.8765757,0.87436837,0.4795043,0.44914266,0.92891204,0.80824846,0.2127538,0.1383851,0.6436561,-0.050063152,-0.28753343,-0.09451047,0.35871395,-0.15256348,-0.52893764,-0.38761938,0.0030795038,782.0879,817.5458,798.20514,776.4469,664.0293,-0.186767578125,-0.01666259765625,1.00433349609375,2.332763671875,1.973876953125,-1.24114990234375,1,1.0,1.0,1.0,1.0,50.00
2022-11-23 20:22:25.758,0.6546707,-0.1373612,-0.10581637,0.8765757,0.87436837,0.4795043,0.44914266,0.92891204,0.80824846,0.2127538,0.1383851,0.6436561,-0.050063152,-0.28753343,-0.09451047,0.35871395,-0.15256348,-0.52893764,-0.38761938,0.0030795038,811.50183,814.7253,797.8022,794.9817,770.40295,-0.186767578125,-0.01666259765625,1.00433349609375,2.332763671875,1.973876953125,-1.24114990234375,1,1.0,1.0,1.0,1.0,50.00
2022-11-23 20:22:25.758,0.6546707,-0.1373612,-0.10581637,0.8765757,0.87436837,0.4795043,0.44914266,0.92891204,0.80824846,0.2127538,0.1383851,0.6436561,-0.050063152,-0.28753343,-0.09451047,0.35871395,-0.15256348,-0.52893764,-0.38761938,0.0030795038,795.78754,816.7399,793.7729,778.0586,912.23444,-0.186767578125,-0.01666259765625,1.00433349609375,2.332763671875,1.973876953125,-1.24114990234375,1,1.0,1.0,1.0,1.0,50.00
2022-11-23 20:22:25.759,0.6546707,-0.1373612,-0.10581637,0.8765757,0.87436837,0.4795043,0.44914266,0.92891204,0.80824846,0.2127538,0.1383851,0.6436561,-0.050063152,-0.28753343,-0.09451047,0.35871395,-0.15256348,-0.52893764,-0.38761938,0.0030795038,750.2564,822.7839,788.5348,736.1539,780.07324,-0.186767578125,-0.01666259765625,1.00433349609375,2.332763671875,1.973876953125,-1.24114990234375,1,1.0,1.0,1.0,1.0,50.00
2022-11-23 20:22:25.759,0.6546707,-0.1373612,-0.10581637,0.8765757,0.87436837,0.4795043,0.44914266,0.92891204,0.80824846,0.2127538,0.1383851,0.6436561,-0.050063152,-0.28753343,-0.09451047,0.35871395,-0.15256348,-0.52893764,-0.38761938,0.0030795038,745.42126,829.6337,788.5348,733.3333,609.6337,-0.186767578125,-0.01666259765625,1.00433349609375,2.332763671875,1.973876953125,-1.24114990234375,1,1.0,1.0,1.0,1.0,50.00
2022-11-23 20:22:25.801,0.6546707,-0.1373612,-0.10581637,0.8765757,0.87436837,0.4795043,0.44914266,0.92891204,0.80824846,0.2127538,0.1383851,0.6436561,-0.050063152,-0.28753343,-0.09451047,0.35871395,-0.15256348,-0.52893764,-0.38761938,0.0030795038,770.40295,833.663,788.1319,747.8388,817.9487,-0.186767578125,-0.01666259765625,1.00433349609375,2.332763671875,1.973876953125,-1.24114990234375,1,1.0,1.0,1.0,1.0,50.00
2022-11-23 20:22:25.801,0.6546707,-0.1373612,-0.10581637,0.8765757,0.87436837,0.4795043,0.44914266,0.92891204,0.80824846,0.2127538,0.1383851,0.6436561,-0.050063152,-0.28753343,-0.09451047,0.35871395,-0.15256348,-0.52893764,-0.38761938,0.0030795038,776.4469,835.2747,781.28204,743.00366,948.0952,-0.186767578125,-0.01666259765625,1.00433349609375,2.332763671875,1.973876953125,-1.24114990234375,1,1.0,1.0,1.0,1.0,50.00
2022-11-23 20:22:25.802,0.6546707,-0.1373612,-0.10581637,0.8765757,0.87436837,0.4795043,0.44914266,0.92891204,0.80824846,0.2127538,0.1383851,0.6436561,-0.050063152,-0.28753343,-0.09451047,0.35871395,-0.15256348,-0.52893764,-0.38761938,0.0030795038,742.1978,839.707,774.83514,705.5311,751.8681,-0.186767578125,-0.01666259765625,1.00433349609375,2.332763671875,1.973876953125,-1.24114990234375,1,1.0,1.0,1.0,1.0,50.00
2022-11-23 20:22:25.802,0.6546707,-0.1373612,-0.10581637,0.8765757,0.87436837,0.4795043,0.44914266,0.92891204,0.80824846,0.2127538,0.1383851,0.6436561,-0.050063152,-0.28753343,-0.09451047,0.35871395,-0.15256348,-0.52893764,-0.38761938,0.0030795038,717.619,843.3333,771.6117,687.3993,579.81683,-0.186767578125,-0.01666259765625,1.00433349609375,2.332763671875,1.973876953125,-1.24114990234375,1,1.0,1.0,1.0,1.0,50.00
2022-11-23 20:22:25.802,0.6546707,-0.1373612,-0.10581637,0.8765757,0.87436837,0.4795043,0.44914266,0.92891204,0.80824846,0.2127538,0.1383851,0.6436561,-0.050063152,-0.28753343,-0.09451047,0.35871395,-0.15256348,-0.52893764,-0.38761938,0.0030795038,749.0476,846.55676,768.7912,716.4103,806.26373,-0.186767578125,-0.01666259765625,1.00433349609375,2.332763671875,1.973876953125,-1.24114990234375,1,1.0,1.0,1.0,1.0,50.00
2022-11-23 20:22:25.802,0.6546707,-0.1373612,-0.10581637,0.8765757,0.87436837,0.4795043,0.44914266,0.92891204,0.80824846,0.2127538,0.1383851,0.6436561,-0.050063152,-0.28753343,-0.09451047,0.35871395,-0.15256348,-0.52893764,-0.38761938,0.0030795038,774.0293,853.00366,767.1795,726.4835,1012.5641,-0.186767578125,-0.01666259765625,1.00433349609375,2.332763671875,1.973876953125,-1.24114990234375,1,1.0,1.0,1.0,1.0,50.00
2022-11-23 20:22:25.803,0.6546707,-0.1373612,-0.10581637,0.8765757,0.87436837,0.4795043,0.44914266,0.92891204,0.80824846,0.2127538,0.1383851,0.6436561,-0.050063152,-0.28753343,-0.09451047,0.35871395,-0.15256348,-0.52893764,-0.38761938,0.0030795038,742.1978,851.39197,760.32965,693.8461,794.9817,-0.186767578125,-0.01666259765625,1.00433349609375,2.332763671875,1.973876953125,-1.24114990234375,1,1.0,1.0,1.0,1.0,50.00
2022-11-23 20:22:25.803,0.66492873,-0.13051498,-0.10819957,0.89452165,0.83802885,0.4303999,0.39307797,0.90843296,0.75404006,0.20660853,0.1383851,0.6207439,-0.038318712,-0.28214183,-0.107878655,0.3591363,-0.14286938,-0.5090042,-0.4075172,0.010564509,708.3516,852.1978,756.30035,673.2967,585.05493,-0.186767578125,-0.01666259765625,1.00433349609375,2.332763671875,1.973876953125,-1.24114990234375,1,1.0,1.0,1.0,1.0,50.00
2022-11-23 20:22:25.804,0.66492873,-0.13051498,-0.10819957,0.89452165,0.83802885,0.4303999,0.39307797,0.90843296,0.75404006,0.20660853,0.1383851,0.6207439,-0.038318712,-0.28214183,-0.107878655,0.3591363,-0.14286938,-0.5090042,-0.4075172,0.010564509,732.52747,854.21246,757.9121,699.89014,756.7033,-0.186767578125,-0.01666259765625,1.00433349609375,2.332763671875,1.973876953125,-1.24114990234375,1,1.0,1.0,1.0,1.0,50.00
2022-11-23 20:22:25.804,0.66492873,-0.13051498,-0.10819957,0.89452165,0.83802885,0.4303999,0.39307797,0.90843296,0.75404006,0.20660853,0.1383851,0.6207439,-0.038318712,-0.28214183,-0.107878655,0.3591363,-0.14286938,-0.5090042,-0.4075172,0.010564509,772.4176,853.8095,760.7326,726.8865,1000.87915,-0.186767578125,-0.01666259765625,1.00433349609375,2.332763671875,1.973876953125,-1.24114990234375,1,1.0,1.0,1.0,1.0,50.00
2022-11-23 20:22:25.805,0.66492873,-0.13051498,-0.10819957,0.89452165,0.83802885,0.4303999,0.39307797,0.90843296,0.75404006,0.20660853,0.1383851,0.6207439,-0.038318712,-0.28214183,-0.107878655,0.3591363,-0.14286938,-0.5090042,-0.4075172,0.010564509,754.2857,861.4652,762.74725,705.12823,818.3516,-0.186767578125,-0.01666259765625,1.00433349609375,2.332763671875,1.973876953125,-1.24114990234375,1,1.0,1.0,1.0,1.0,50.00
2022-11-23 20:22:25.805,0.66492873,-0.13051498,-0.10819957,0.89452165,0.83802885,0.4303999,0.39307797,0.90843296,0.75404006,0.20660853,0.1383851,0.6207439,-0.038318712,-0.28214183,-0.107878655,0.3591363,-0.14286938,-0.5090042,-0.4075172,0.010564509,720.4396,861.06226,759.5238,678.1319,640.65936,-0.186767578125,-0.01666259765625,1.00433349609375,2.332763671875,1.973876953125,-1.24114990234375,1,1.0,1.0,1.0,1.0,50.00
2022-11-23 20:22:25.855,0.66492873,-0.13051498,-0.10819957,0.89452165,0.83802885,0.4303999,0.39307797,0.90843296,0.75404006,0.20660853,0.1383851,0.6207439,-0.038318712,-0.28214183,-0.107878655,0.3591363,-0.14286938,-0.5090042,-0.4075172,0.010564509,740.989,858.6447,759.5238,703.5165,656.77655,-0.20233154296875,-0.02239990234375,1.00018310546875,2.429962158203125,2.340240478515625,-3.252410888671875,1,1.0,1.0,1.0,1.0,50.00
2022-11-23 20:22:25.856,0.66492873,-0.13051498,-0.10819957,0.89452165,0.83802885,0.4303999,0.39307797,0.90843296,0.75404006,0.20660853,0.1383851,0.6207439,-0.038318712,-0.28214183,-0.107878655,0.3591363,-0.14286938,-0.5090042,-0.4075172,0.010564509,774.83514,859.0476,757.50916,734.1392,822.381,-0.20233154296875,-0.02239990234375,1.00018310546875,2.429962158203125,2.340240478515625,-3.252410888671875,1,1.0,1.0,1.0,1.0,50.00
2022-11-23 20:22:25.856,0.66492873,-0.13051498,-0.10819957,0.89452165,0.83802885,0.4303999,0.39307797,0.90843296,0.75404006,0.20660853,0.1383851,0.6207439,-0.038318712,-0.28214183,-0.107878655,0.3591363,-0.14286938,-0.5090042,-0.4075172,0.010564509,770.40295,855.42126,750.65936,718.022,928.7546,-0.20233154296875,-0.02239990234375,1.00018310546875,2.429962158203125,2.340240478515625,-3.252410888671875,1,1.0,1.0,1.0,1.0,50.00
2022-11-23 20:22:25.856,0.66492873,-0.13051498,-0.10819957,0.89452165,0.83802885,0.4303999,0.39307797,0.90843296,0.75404006,0.20660853,0.1383851,0.6207439,-0.038318712,-0.28214183,-0.107878655,0.3591363,-0.14286938,-0.5090042,-0.4075172,0.010564509,741.39197,851.39197,747.4359,700.293,774.83514,-0.20233154296875,-0.02239990234375,1.00018310546875,2.429962158203125,2.340240478515625,-3.252410888671875,1,1.0,1.0,1.0,1.0,50.00
2022-11-23 20:22:25.856,0.66492873,-0.13051498,-0.10819957,0.89452165,0.83802885,0.4303999,0.39307797,0.90843296,0.75404006,0.20660853,0.1383851,0.6207439,-0.038318712,-0.28214183,-0.107878655,0.3591363,-0.14286938,-0.5090042,-0.4075172,0.010564509,744.61536,848.1685,753.0769,721.2454,630.58606,-0.20233154296875,-0.02239990234375,1.00018310546875,2.429962158203125,2.340240478515625,-3.252410888671875,1,1.0,1.0,1.0,1.0,50.00
2022-11-23 20:22:25.857,0.66492873,-0.13051498,-0.10819957,0.89452165,0.83802885,0.4303999,0.39307797,0.90843296,0.75404006,0.20660853,0.1383851,0.6207439,-0.038318712,-0.28214183,-0.107878655,0.3591363,-0.14286938,-0.5090042,-0.4075172,0.010564509,788.5348,852.6007,758.315,758.315,863.47986,-0.20233154296875,-0.02239990234375,1.00018310546875,2.429962158203125,2.340240478515625,-3.252410888671875,1,1.0,1.0,1.0,1.0,50.00
2022-11-23 20:22:25.857,0.66492873,-0.13051498,-0.10819957,0.89452165,0.83802885,0.4303999,0.39307797,0.90843296,0.75404006,0.20660853,0.1383851,0.6207439,-0.038318712,-0.28214183,-0.107878655,0.3591363,-0.14286938,-0.5090042,-0.4075172,0.010564509,808.2784,852.1978,760.32965,765.56775,973.8828,-0.20233154296875,-0.02239990234375,1.00018310546875,2.429962158203125,2.340240478515625,-3.252410888671875,1,1.0,1.0,1.0,1.0,50.00
2022-11-23 20:22:25.857,0.66492873,-0.13051498,-0.10819957,0.89452165,0.83802885,0.4303999,0.39307797,0.90843296,0.75404006,0.20660853,0.1383851,0.6207439,-0.038318712,-0.28214183,-0.107878655,0.3591363,-0.14286938,-0.5090042,-0.4075172,0.010564509,786.1172,850.18317,762.3443,748.24176,766.3736,-0.20233154296875,-0.02239990234375,1.00018310546875,2.429962158203125,2.340240478515625,-3.252410888671875,1,1.0,1.0,1.0,1.0,50.00
2022-11-23 20:22:25.857,0.66492873,-0.13051498,-0.10819957,0.89452165,0.83802885,0.4303999,0.39307797,0.90843296,0.75404006,0.20660853,0.1383851,0.6207439,-0.038318712,-0.28214183,-0.107878655,0.3591363,-0.14286938,-0.5090042,-0.4075172,0.010564509,769.19415,844.94507,764.7619,743.00366,850.58606,-0.20233154296875,-0.02239990234375,1.00018310546875,2.429962158203125,2.340240478515625,-3.252410888671875,1,1.0,1.0,1.0,1.0,50.00
2022-11-23 20:22:25.858,0.66492873,-0.13051498,-0.10819957,0.89452165,0.83802885,0.4303999,0.39307797,0.90843296,0.75404006,0.20660853,0.1383851,0.6207439,-0.038318712,-0.28214183,-0.107878655,0.3591363,-0.14286938,-0.5090042,-0.4075172,0.010564509,796.5934,840.9158,769.59705,775.2381,1006.9231,-0.20233154296875,-0.02239990234375,1.00018310546875,2.429962158203125,2.340240478515625,-3.252410888671875,1,1.0,1.0,1.0,1.0,50.00
2022-11-23 20:22:25.858,0.66492873,-0.13051498,-0.10819957,0.89452165,0.83802885,0.4303999,0.39307797,0.90843296,0.75404006,0.20660853,0.1383851,0.6207439,-0.038318712,-0.28214183,-0.107878655,0.3591363,-0.14286938,-0.5090042,-0.4075172,0.010564509,824.3956,840.5128,772.4176,792.96704,863.0769,-0.20233154296875,-0.02239990234375,1.00018310546875,2.429962158203125,2.340240478515625,-3.252410888671875,1,1.0,1.0,1.0,1.0,50.00
2022-11-23 20:22:25.858,0.66492873,-0.13051498,-0.10819957,0.89452165,0.83802885,0.4303999,0.39307797,0.90843296,0.75404006,0.20660853,0.1383851,0.6207439,-0.038318712,-0.28214183,-0.107878655,0.3591363,-0.14286938,-0.5090042,-0.4075172,0.010564509,803.0403,839.304,774.83514,770.40295,725.6777,-0.20233154296875,-0.02239990234375,1.00018310546875,2.429962158203125,2.340240478515625,-3.252410888671875,1,1.0,1.0,1.0,1.0,50.00
2022-11-23 20:22:25.905,0.66492873,-0.13051498,-0.10819957,0.89452165,0.83802885,0.4303999,0.39307797,0.90843296,0.75404006,0.20660853,0.1383851,0.6207439,-0.038318712,-0.28214183,-0.107878655,0.3591363,-0.14286938,-0.5090042,-0.4075172,0.010564509,784.10254,838.49817,777.6557,763.1502,649.5238,-0.212158203125,-0.02618408203125,0.9901123046875,2.27294921875,1.24114990234375,-3.409423828125,1,1.0,1.0,1.0,1.0,50.00
2022-11-23 20:22:25.906,0.66492873,-0.13051498,-0.10819957,0.89452165,0.83802885,0.4303999,0.39307797,0.90843296,0.75404006,0.20660853,0.1383851,0.6207439,-0.038318712,-0.28214183,-0.107878655,0.3591363,-0.14286938,-0.5090042,-0.4075172,0.010564509,811.0989,836.08057,777.25275,790.9524,713.9927,-0.212158203125,-0.02618408203125,0.9901123046875,2.27294921875,1.24114990234375,-3.409423828125,1,1.0,1.0,1.0,1.0,50.00
2022-11-23 20:22:25.906,0.66492873,-0.13051498,-0.10819957,0.89452165,0.83802885,0.4303999,0.39307797,0.90843296,0.75404006,0.20660853,0.1383851,0.6207439,-0.038318712,-0.28214183,-0.107878655,0.3591363,-0.14286938,-0.5090042,-0.4075172,0.010564509,841.31866,828.4249,775.2381,807.8755,841.7216,-0.212158203125,-0.02618408203125,0.9901123046875,2.27294921875,1.24114990234375,-3.409423828125,1,1.0,1.0,1.0,1.0,50.00
2022-11-23 20:22:25.906,0.66492873,-0.13051498,-0.10819957,0.89452165,0.83802885,0.4303999,0.39307797,0.90843296,0.75404006,0.20660853,0.1383851,0.6207439,-0.038318712,-0.28214183,-0.107878655,0.3591363,-0.14286938,-0.5090042,-0.4075172,0.010564509,828.022,825.6044,779.67035,791.3553,853.4066,-0.212158203125,-0.02618408203125,0.9901123046875,2.27294921875,1.24114990234375,-3.409423828125,1,1.0,1.0,1.0,1.0,50.00
2022-11-23 20:22:25.907,0.66492873,-0.13051498,-0.10819957,0.89452165,0.83802885,0.4303999,0.39307797,0.90843296,0.75404006,0.20660853,0.1383851,0.6207439,-0.038318712,-0.28214183,-0.107878655,0.3591363,-0.14286938,-0.5090042,-0.4075172,0.010564509,791.3553,825.2015,779.67035,778.46155,676.1172,-0.212158203125,-0.02618408203125,0.9901123046875,2.27294921875,1.24114990234375,-3.409423828125,1,1.0,1.0,1.0,1.0,50.00
2022-11-23 20:22:25.907,0.66492873,-0.13051498,-0.10819957,0.89452165,0.83802885,0.4303999,0.39307797,0.90843296,0.75404006,0.20660853,0.1383851,0.6207439,-0.038318712,-0.28214183,-0.107878655,0.3591363,-0.14286938,-0.5090042,-0.4075172,0.010564509,801.02563,821.978,778.0586,788.5348,735.7509,-0.212158203125,-0.02618408203125,0.9901123046875,2.27294921875,1.24114990234375,-3.409423828125,1,1.0,1.0,1.0,1.0,50.00
2022-11-23 20:22:25.907,0.66492873,-0.13051498,-0.10819957,0.89452165,0.83802885,0.4303999,0.39307797,0.90843296,0.75404006,0.20660853,0.1383851,0.6207439,-0.038318712,-0.28214183,-0.107878655,0.3591363,-0.14286938,-0.5090042,-0.4075172,0.010564509,840.10986,823.9927,784.5055,811.9048,971.06226,-0.212158203125,-0.02618408203125,0.9901123046875,2.27294921875,1.24114990234375,-3.409423828125,1,1.0,1.0,1.0,1.0,50.00
2022-11-23 20:22:25.907,0.66492873,-0.13051498,-0.10819957,0.89452165,0.83802885,0.4303999,0.39307797,0.90843296,0.75404006,0.20660853,0.1383851,0.6207439,-0.038318712,-0.28214183,-0.107878655,0.3591363,-0.14286938,-0.5090042,-0.4075172,0.010564509,836.4835,823.9927,788.5348,816.7399,1028.6813,-0.212158203125,-0.02618408203125,0.9901123046875,2.27294921875,1.24114990234375,-3.409423828125,1,1.0,1.0,1.0,1.0,50.00
2022-11-23 20:22:25.908,0.66492873,-0.13051498,-0.10819957,0.89452165,0.83802885,0.4303999,0.39307797,0.90843296,0.75404006,0.20660853,0.1383851,0.6207439,-0.038318712,-0.28214183,-0.107878655,0.3591363,-0.14286938,-0.5090042,-0.4075172,0.010564509,805.8608,823.5897,789.7436,801.8315,929.15753,-0.212158203125,-0.02618408203125,0.9901123046875,2.27294921875,1.24114990234375,-3.409423828125,1,1.0,1.0,1.0,1.0,50.00
2022-11-23 20:22:25.908,0.67022836,0.0015335815,-0.053027246,0.9101632,0.78946066,0.35449898,0.31426436,0.8678845,0.71311307,0.19638865,0.13558803,0.6133058,-0.022591766,-0.27928752,-0.12051139,0.35559103,-0.13409479,-0.4942313,-0.4390326,0.015357044,797.3993,820.3663,794.57874,797.8022,674.5055,-0.212158203125,-0.02618408203125,0.9901123046875,2.27294921875,1.24114990234375,-3.409423828125,1,1.0,1.0,1.0,1.0,50.00
2022-11-23 20:22:25.909,0.67022836,0.0015335815,-0.053027246,0.9101632,0.78946066,0.35449898,0.31426436,0.8678845,0.71311307,0.19638865,0.13558803,0.6133058,-0.022591766,-0.27928752,-0.12051139,0.35559103,-0.13409479,-0.4942313,-0.4390326,0.015357044,832.0513,815.9341,797.8022,824.7985,719.2308,-0.212158203125,-0.02618408203125,0.9901123046875,2.27294921875,1.24114990234375,-3.409423828125,1,1.0,1.0,1.0,1.0,50.00
2022-11-23 20:22:25.909,0.67022836,0.0015335815,-0.053027246,0.9101632,0.78946066,0.35449898,0.31426436,0.8678845,0.71311307,0.19638865,0.13558803,0.6133058,-0.022591766,-0.27928752,-0.12051139,0.35559103,-0.13409479,-0.4942313,-0.4390326,0.015357044,850.989,817.1429,796.99634,835.2747,947.28937,-0.212158203125,-0.02618408203125,0.9901123046875,2.27294921875,1.24114990234375,-3.409423828125,1,1.0,1.0,1.0,1.0,50.00
2022-11-23 20:22:25.932,0.67022836,0.0015335815,-0.053027246,0.9101632,0.78946066,0.35449898,0.31426436,0.8678845,0.71311307,0.19638865,0.13558803,0.6133058,-0.022591766,-0.27928752,-0.12051139,0.35559103,-0.13409479,-0.4942313,-0.4390326,0.015357044,813.91943,815.9341,797.3993,804.2491,854.61536,-0.2232666015625,-0.01690673828125,0.985107421875,2.609405517578125,-0.246734619140625,-6.14593505859375,1,1.0,1.0,1.0,1.0,50.00
2022-11-23 20:22:25.933,0.67022836,0.0015335815,-0.053027246,0.9101632,0.78946066,0.35449898,0.31426436,0.8678845,0.71311307,0.19638865,0.13558803,0.6133058,-0.022591766,-0.27928752,-0.12051139,0.35559103,-0.13409479,-0.4942313,-0.4390326,0.015357044,787.72894,814.3223,794.17584,793.36993,640.65936,-0.2232666015625,-0.01690673828125,0.985107421875,2.609405517578125,-0.246734619140625,-6.14593505859375,1,1.0,1.0,1.0,1.0,50.00
2022-11-23 20:22:25.933,0.67022836,0.0015335815,-0.053027246,0.9101632,0.78946066,0.35449898,0.31426436,0.8678845,0.71311307,0.19638865,0.13558803,0.6133058,-0.022591766,-0.27928752,-0.12051139,0.35559103,-0.13409479,-0.4942313,-0.4390326,0.015357044,817.1429,811.50183,790.14655,820.7692,713.9927,-0.2232666015625,-0.01690673828125,0.985107421875,2.609405517578125,-0.246734619140625,-6.14593505859375,1,1.0,1.0,1.0,1.0,50.00
2022-11-23 20:22:25.933,0.67022836,0.0015335815,-0.053027246,0.9101632,0.78946066,0.35449898,0.31426436,0.8678845,0.71311307,0.19638865,0.13558803,0.6133058,-0.022591766,-0.27928752,-0.12051139,0.35559103,-0.13409479,-0.4942313,-0.4390326,0.015357044,840.5128,810.696,792.1612,832.8571,857.8388,-0.2232666015625,-0.01690673828125,0.985107421875,2.609405517578125,-0.246734619140625,-6.14593505859375,1,1.0,1.0,1.0,1.0,50.00
2022-11-23 20:22:25.934,0.67022836,0.0015335815,-0.053027246,0.9101632,0.78946066,0.35449898,0.31426436,0.8678845,0.71311307,0.19638865,0.13558803,0.6133058,-0.022591766,-0.27928752,-0.12051139,0.35559103,-0.13409479,-0.4942313,-0.4390326,0.015357044,817.1429,811.0989,793.7729,811.50183,814.3223,-0.2232666015625,-0.01690673828125,0.985107421875,2.609405517578125,-0.246734619140625,-6.14593505859375,1,1.0,1.0,1.0,1.0,50.00
2022-11-23 20:22:25.934,0.67022836,0.0015335815,-0.053027246,0.9101632,0.78946066,0.35449898,0.31426436,0.8678845,0.71311307,0.19638865,0.13558803,0.6133058,-0.022591766,-0.27928752,-0.12051139,0.35559103,-0.13409479,-0.4942313,-0.4390326,0.015357044,787.72894,808.68134,791.75824,787.326,723.663,-0.2232666015625,-0.01690673828125,0.985107421875,2.609405517578125,-0.246734619140625,-6.14593505859375,1,1.0,1.0,1.0,1.0,50.00
2022-11-23 20:22:25.934,0.67022836,0.0015335815,-0.053027246,0.9101632,0.78946066,0.35449898,0.31426436,0.8678845,0.71311307,0.19638865,0.13558803,0.6133058,-0.022591766,-0.27928752,-0.12051139,0.35559103,-0.13409479,-0.4942313,-0.4390326,0.015357044,808.2784,807.47253,790.54944,806.26373,768.7912,-0.2232666015625,-0.01690673828125,0.985107421875,2.609405517578125,-0.246734619140625,-6.14593505859375,1,1.0,1.0,1.0,1.0,50.00
2022-11-23 20:22:25.935,0.67022836,0.0015335815,-0.053027246,0.9101632,0.78946066,0.35449898,0.31426436,0.8678845,0.71311307,0.19638865,0.13558803,0.6133058,-0.022591766,-0.27928752,-0.12051139,0.35559103,-0.13409479,-0.4942313,-0.4390326,0.015357044,844.94507,808.2784,793.36993,839.707,1041.1721,-0.2232666015625,-0.01690673828125,0.985107421875,2.609405517578125,-0.246734619140625,-6.14593505859375,1,1.0,1.0,1.0,1.0,50.00
2022-11-23 20:22:25.935,0.67022836,0.0015335815,-0.053027246,0.9101632,0.78946066,0.35449898,0.31426436,0.8678845,0.71311307,0.19638865,0.13558803,0.6133058,-0.022591766,-0.27928752,-0.12051139,0.35559103,-0.13409479,-0.4942313,-0.4390326,0.015357044,834.87177,806.26373,795.38464,822.7839,1056.0806,-0.2232666015625,-0.01690673828125,0.985107421875,2.609405517578125,-0.246734619140625,-6.14593505859375,1,1.0,1.0,1.0,1.0,50.00
2022-11-23 20:22:25.935,0.67022836,0.0015335815,-0.053027246,0.9101632,0.78946066,0.35449898,0.31426436,0.8678845,0.71311307,0.19638865,0.13558803,0.6133058,-0.022591766,-0.27928752,-0.12051139,0.35559103,-0.13409479,-0.4942313,-0.4390326,0.015357044,808.2784,811.0989,797.8022,799.011,801.02563,-0.2232666015625,-0.01690673828125,0.985107421875,2.609405517578125,-0.246734619140625,-6.14593505859375,1,1.0,1.0,1.0,1.0,50.00
2022-11-23 20:22:25.935,0.67022836,0.0015335815,-0.053027246,0.9101632,0.78946066,0.35449898,0.31426436,0.8678845,0.71311307,0.19638865,0.13558803,0.6133058,-0.022591766,-0.27928752,-0.12051139,0.35559103,-0.13409479,-0.4942313,-0.4390326,0.015357044,811.9048,813.1135,802.23444,805.8608,801.02563,-0.2232666015625,-0.01690673828125,0.985107421875,2.609405517578125,-0.246734619140625,-6.14593505859375,1,1.0,1.0,1.0,1.0,50.00
2022-11-23 20:22:25.936,0.67022836,0.0015335815,-0.053027246,0.9101632,0.78946066,0.35449898,0.31426436,0.8678845,0.71311307,0.19638865,0.13558803,0.6133058,-0.022591766,-0.27928752,-0.12051139,0.35559103,-0.13409479,-0.4942313,-0.4390326,0.015357044,844.94507,809.4872,801.8315,828.8278,857.8388,-0.2232666015625,-0.01690673828125,0.985107421875,2.609405517578125,-0.246734619140625,-6.14593505859375,1,1.0,1.0,1.0,1.0,50.00
2022-11-23 20:22:25.985,0.67022836,0.0015335815,-0.053027246,0.9101632,0.78946066,0.35449898,0.31426436,0.8678845,0.71311307,0.19638865,0.13558803,0.6133058,-0.022591766,-0.27928752,-0.12051139,0.35559103,-0.13409479,-0.4942313,-0.4390326,0.015357044,844.5421,808.2784,794.9817,828.4249,866.30035,-0.22052001953125,-0.011962890625,0.989990234375,4.08233642578125,-1.936492919921875,-7.738494873046875,1,1.0,1.0,1.0,1.0,50.00
2022-11-23 20:22:25.986,0.67022836,0.0015335815,-0.053027246,0.9101632,0.78946066,0.35449898,0.31426436,0.8678845,0.71311307,0.19638865,0.13558803,0.6133058,-0.022591766,-0.27928752,-0.12051139,0.35559103,-0.13409479,-0.4942313,-0.4390326,0.015357044,808.68134,809.0842,794.9817,796.99634,673.2967,-0.22052001953125,-0.011962890625,0.989990234375,4.08233642578125,-1.936492919921875,-7.738494873046875,1,1.0,1.0,1.0,1.0,50.00
2022-11-23 20:22:25.987,0.67022836,0.0015335815,-0.053027246,0.9101632,0.78946066,0.35449898,0.31426436,0.8678845,0.71311307,0.19638865,0.13558803,0.6133058,-0.022591766,-0.27928752,-0.12051139,0.35559103,-0.13409479,-0.4942313,-0.4390326,0.015357044,801.02563,807.0696,798.60803,791.75824,596.7399,-0.22052001953125,-0.011962890625,0.989990234375,4.08233642578125,-1.936492919921875,-7.738494873046875,1,1.0,1.0,1.0,1.0,50.00
2022-11-23 20:22:25.987,0.67022836,0.0015335815,-0.053027246,0.9101632,0.78946066,0.35449898,0.31426436,0.8678845,0.71311307,0.19638865,0.13558803,0.6133058,-0.022591766,-0.27928752,-0.12051139,0.35559103,-0.13409479,-0.4942313,-0.4390326,0.015357044,832.4542,807.47253,797.8022,821.978,813.5165,-0.22052001953125,-0.011962890625,0.989990234375,4.08233642578125,-1.936492919921875,-7.738494873046875,1,1.0,1.0,1.0,1.0,50.00
2022-11-23 20:22:25.988,0.67022836,0.0015335815,-0.053027246,0.9101632,0.78946066,0.35449898,0.31426436,0.8678845,0.71311307,0.19638865,0.13558803,0.6133058,-0.022591766,-0.27928752,-0.12051139,0.35559103,-0.13409479,-0.4942313,-0.4390326,0.015357044,844.94507,807.8755,798.20514,823.1868,897.72894,-0.22052001953125,-0.011962890625,0.989990234375,4.08233642578125,-1.936492919921875,-7.738494873046875,1,1.0,1.0,1.0,1.0,50.00
2022-11-23 20:22:25.988,0.67022836,0.0015335815,-0.053027246,0.9101632,0.78946066,0.35449898,0.31426436,0.8678845,0.71311307,0.19638865,0.13558803,0.6133058,-0.022591766,-0.27928752,-0.12051139,0.35559103,-0.13409479,-0.4942313,-0.4390326,0.015357044,807.8755,806.26373,794.9817,791.75824,762.74725,-0.22052001953125,-0.011962890625,0.989990234375,4.08233642578125,-1.936492919921875,-7.738494873046875,1,1.0,1.0,1.0,1.0,50.00
2022-11-23 20:22:25.989,0.67022836,0.0015335815,-0.053027246,0.9101632,0.78946066,0.35449898,0.31426436,0.8678845,0.71311307,0.19638865,0.13558803,0.6133058,-0.022591766,-0.27928752,-0.12051139,0.35559103,-0.13409479,-0.4942313,-0.4390326,0.015357044,784.5055,805.4579,791.3553,786.1172,805.05493,-0.22052001953125,-0.011962890625,0.989990234375,4.08233642578125,-1.936492919921875,-7.738494873046875,1,1.0,1.0,1.0,1.0,50.00
2022-11-23 20:22:25.989,0.67022836,0.0015335815,-0.053027246,0.9101632,0.78946066,0.35449898,0.31426436,0.8678845,0.71311307,0.19638865,0.13558803,0.6133058,-0.022591766,-0.27928752,-0.12051139,0.35559103,-0.13409479,-0.4942313,-0.4390326,0.015357044,805.4579,800.2198,792.5641,811.0989,1030.6959,-0.22052001953125,-0.011962890625,0.989990234375,4.08233642578125,-1.936492919921875,-7.738494873046875,1,1.0,1.0,1.0,1.0,50.00
2022-11-23 20:22:25.990,0.67022836,0.0015335815,-0.053027246,0.9101632,0.78946066,0.35449898,0.31426436,0.8678845,0.71311307,0.19638865,0.13558803,0.6133058,-0.022591766,-0.27928752,-0.12051139,0.35559103,-0.13409479,-0.4942313,-0.4390326,0.015357044,835.2747,800.2198,793.7729,827.619,929.5604,-0.22052001953125,-0.011962890625,0.989990234375,4.08233642578125,-1.936492919921875,-7.738494873046875,1,1.0,1.0,1.0,1.0,50.00
2022-11-23 20:22:25.990,0.67022836,0.0015335815,-0.053027246,0.9101632,0.78946066,0.35449898,0.31426436,0.8678845,0.71311307,0.19638865,0.13558803,0.6133058,-0.022591766,-0.27928752,-0.12051139,0.35559103,-0.13409479,-0.4942313,-0.4390326,0.015357044,823.9927,801.8315,795.78754,808.68134,736.9597,-0.22052001953125,-0.011962890625,0.989990234375,4.08233642578125,-1.936492919921875,-7.738494873046875,1,1.0,1.0,1.0,1.0,50.00
2022-11-23 20:22:25.990,0.67022836,0.0015335815,-0.053027246,0.9101632,0.78946066,0.35449898,0.31426436,0.8678845,0.71311307,0.19638865,0.13558803,0.6133058,-0.022591766,-0.27928752,-0.12051139,0.35559103,-0.13409479,-0.4942313,-0.4390326,0.015357044,785.7143,799.81683,792.96704,785.31134,619.707,-0.22052001953125,-0.011962890625,0.989990234375,4.08233642578125,-1.936492919921875,-7.738494873046875,1,1.0,1.0,1.0,1.0,50.00
2022-11-23 20:22:25,,,,,,,,,,,,,,,,,,,,,,,,,,,,,,,,,,,,,,/muse/elements/blink
2022-11-23 20:22:25.991,0.6717394,0.2668425,0.1487103,0.9193555,0.7452379,0.28626406,0.25898042,0.8119515,0.70737654,0.16836952,0.13210213,0.60368276,-0.009294162,-0.2810848,-0.124760345,0.35153648,-0.12525027,-0.48280495,-0.4713468,0.020335173,797.3993,797.3993,791.3553,795.78754,662.4176,-0.22052001953125,-0.011962890625,0.989990234375,4.08233642578125,-1.936492919921875,-7.738494873046875,1,1.0,1.0,1.0,1.0,50.00
2022-11-23 20:22:26.063,0.6717394,0.2668425,0.1487103,0.9193555,0.7452379,0.28626406,0.25898042,0.8119515,0.70737654,0.16836952,0.13210213,0.60368276,-0.009294162,-0.2810848,-0.124760345,0.35153648,-0.12525027,-0.48280495,-0.4713468,0.020335173,836.8865,797.8022,796.1905,823.9927,852.6007,-0.22052001953125,-0.011962890625,0.989990234375,4.08233642578125,-1.936492919921875,-7.738494873046875,1,1.0,1.0,1.0,1.0,50.00
2022-11-23 20:22:26.064,0.6717394,0.2668425,0.1487103,0.9193555,0.7452379,0.28626406,0.25898042,0.8119515,0.70737654,0.16836952,0.13210213,0.60368276,-0.009294162,-0.2810848,-0.124760345,0.35153648,-0.12525027,-0.48280495,-0.4713468,0.020335173,832.4542,804.65204,800.2198,819.9634,849.7802,-0.22052001953125,-0.011962890625,0.989990234375,4.08233642578125,-1.936492919921875,-7.738494873046875,1,1.0,1.0,1.0,1.0,50.00
2022-11-23 20:22:26.064,0.6717394,0.2668425,0.1487103,0.9193555,0.7452379,0.28626406,0.25898042,0.8119515,0.70737654,0.16836952,0.13210213,0.60368276,-0.009294162,-0.2810848,-0.124760345,0.35153648,-0.12525027,-0.48280495,-0.4713468,0.020335173,794.17584,803.8461,803.0403,790.9524,680.9524,-0.22052001953125,-0.011962890625,0.989990234375,4.08233642578125,-1.936492919921875,-7.738494873046875,1,1.0,1.0,1.0,1.0,50.00
2022-11-23 20:22:26.064,0.6717394,0.2668425,0.1487103,0.9193555,0.7452379,0.28626406,0.25898042,0.8119515,0.70737654,0.16836952,0.13210213,0.60368276,-0.009294162,-0.2810848,-0.124760345,0.35153648,-0.12525027,-0.48280495,-0.4713468,0.020335173,792.1612,802.6374,805.05493,798.20514,618.0952,-0.22052001953125,-0.011962890625,0.989990234375,4.08233642578125,-1.936492919921875,-7.738494873046875,1,1.0,1.0,1.0,1.0,50.00
2022-11-23 20:22:26.064,0.6717394,0.2668425,0.1487103,0.9193555,0.7452379,0.28626406,0.25898042,0.8119515,0.70737654,0.16836952,0.13210213,0.60368276,-0.009294162,-0.2810848,-0.124760345,0.35153648,-0.12525027,-0.48280495,-0.4713468,0.020335173,828.8278,803.44324,806.26373,829.6337,795.38464,-0.22052001953125,-0.011962890625,0.989990234375,4.08233642578125,-1.936492919921875,-7.738494873046875,1,1.0,1.0,1.0,1.0,50.00
2022-11-23 20:22:26.065,0.6717394,0.2668425,0.1487103,0.9193555,0.7452379,0.28626406,0.25898042,0.8119515,0.70737654,0.16836952,0.13210213,0.60368276,-0.009294162,-0.2810848,-0.124760345,0.35153648,-0.12525027,-0.48280495,-0.4713468,0.020335173,838.0952,803.0403,805.05493,836.4835,913.44324,-0.22052001953125,-0.011962890625,0.989990234375,4.08233642578125,-1.936492919921875,-7.738494873046875,1,1.0,1.0,1.0,1.0,50.00
2022-11-23 20:22:26.065,0.6717394,0.2668425,0.1487103,0.9193555,0.7452379,0.28626406,0.25898042,0.8119515,0.70737654,0.16836952,0.13210213,0.60368276,-0.009294162,-0.2810848,-0.124760345,0.35153648,-0.12525027,-0.48280495,-0.4713468,0.020335173,801.4286,798.60803,805.4579,809.0842,996.8498,-0.22052001953125,-0.011962890625,0.989990234375,4.08233642578125,-1.936492919921875,-7.738494873046875,1,1.0,1.0,1.0,1.0,50.00
2022-11-23 20:22:26.065,0.6717394,0.2668425,0.1487103,0.9193555,0.7452379,0.28626406,0.25898042,0.8119515,0.70737654,0.16836952,0.13210213,0.60368276,-0.009294162,-0.2810848,-0.124760345,0.35153648,-0.12525027,-0.48280495,-0.4713468,0.020335173,784.90845,795.38464,804.65204,798.60803,929.5604,-0.22052001953125,-0.011962890625,0.989990234375,4.08233642578125,-1.936492919921875,-7.738494873046875,1,1.0,1.0,1.0,1.0,50.00
2022-11-23 20:22:26.065,0.6717394,0.2668425,0.1487103,0.9193555,0.7452379,0.28626406,0.25898042,0.8119515,0.70737654,0.16836952,0.13210213,0.60368276,-0.009294162,-0.2810848,-0.124760345,0.35153648,-0.12525027,-0.48280495,-0.4713468,0.020335173,821.978,800.2198,803.44324,824.7985,721.6484,-0.22052001953125,-0.011962890625,0.989990234375,4.08233642578125,-1.936492919921875,-7.738494873046875,1,1.0,1.0,1.0,1.0,50.00
2022-11-23 20:22:26.066,0.6717394,0.2668425,0.1487103,0.9193555,0.7452379,0.28626406,0.25898042,0.8119515,0.70737654,0.16836952,0.13210213,0.60368276,-0.009294162,-0.2810848,-0.124760345,0.35153648,-0.12525027,-0.48280495,-0.4713468,0.020335173,846.55676,802.6374,807.47253,838.9011,883.6264,-0.22052001953125,-0.011962890625,0.989990234375,4.08233642578125,-1.936492919921875,-7.738494873046875,1,1.0,1.0,1.0,1.0,50.00
2022-11-23 20:22:26.066,0.6717394,0.2668425,0.1487103,0.9193555,0.7452379,0.28626406,0.25898042,0.8119515,0.70737654,0.16836952,0.13210213,0.60368276,-0.009294162,-0.2810848,-0.124760345,0.35153648,-0.12525027,-0.48280495,-0.4713468,0.020335173,817.5458,805.4579,806.6667,809.4872,966.2271,-0.22052001953125,-0.011962890625,0.989990234375,4.08233642578125,-1.936492919921875,-7.738494873046875,1,1.0,1.0,1.0,1.0,50.00
2022-11-23 20:22:26.066,0.6717394,0.2668425,0.1487103,0.9193555,0.7452379,0.28626406,0.25898042,0.8119515,0.70737654,0.16836952,0.13210213,0.60368276,-0.009294162,-0.2810848,-0.124760345,0.35153648,-0.12525027,-0.48280495,-0.4713468,0.020335173,789.34064,809.4872,809.89014,791.75824,817.1429,-0.22052001953125,-0.011962890625,0.989990234375,4.08233642578125,-1.936492919921875,-7.738494873046875,1,1.0,1.0,1.0,1.0,50.00
2022-11-23 20:22:26.089,0.6717394,0.2668425,0.1487103,0.9193555,0.7452379,0.28626406,0.25898042,0.8119515,0.70737654,0.16836952,0.13210213,0.60368276,-0.009294162,-0.2810848,-0.124760345,0.35153648,-0.12525027,-0.48280495,-0.4713468,0.020335173,816.7399,809.4872,813.91943,823.1868,780.4762,-0.21392822265625,-0.00860595703125,0.995849609375,5.00946044921875,-2.55706787109375,-7.843170166015625,1,1.0,1.0,1.0,1.0,50.00
2022-11-23 20:22:26.089,0.6717394,0.2668425,0.1487103,0.9193555,0.7452379,0.28626406,0.25898042,0.8119515,0.70737654,0.16836952,0.13210213,0.60368276,-0.009294162,-0.2810848,-0.124760345,0.35153648,-0.12525027,-0.48280495,-0.4713468,0.020335173,854.21246,805.8608,814.7253,845.34796,847.3626,-0.21392822265625,-0.00860595703125,0.995849609375,5.00946044921875,-2.55706787109375,-7.843170166015625,1,1.0,1.0,1.0,1.0,50.00
2022-11-23 20:22:26.089,0.6717394,0.2668425,0.1487103,0.9193555,0.7452379,0.28626406,0.25898042,0.8119515,0.70737654,0.16836952,0.13210213,0.60368276,-0.009294162,-0.2810848,-0.124760345,0.35153648,-0.12525027,-0.48280495,-0.4713468,0.020335173,834.0659,804.65204,813.1135,827.2161,806.26373,-0.21392822265625,-0.00860595703125,0.995849609375,5.00946044921875,-2.55706787109375,-7.843170166015625,1,1.0,1.0,1.0,1.0,50.00
2022-11-23 20:22:26.090,0.6717394,0.2668425,0.1487103,0.9193555,0.7452379,0.28626406,0.25898042,0.8119515,0.70737654,0.16836952,0.13210213,0.60368276,-0.009294162,-0.2810848,-0.124760345,0.35153648,-0.12525027,-0.48280495,-0.4713468,0.020335173,793.7729,805.8608,810.293,797.8022,612.8571,-0.21392822265625,-0.00860595703125,0.995849609375,5.00946044921875,-2.55706787109375,-7.843170166015625,1,1.0,1.0,1.0,1.0,50.00
2022-11-23 20:22:26.090,0.6717394,0.2668425,0.1487103,0.9193555,0.7452379,0.28626406,0.25898042,0.8119515,0.70737654,0.16836952,0.13210213,0.60368276,-0.009294162,-0.2810848,-0.124760345,0.35153648,-0.12525027,-0.48280495,-0.4713468,0.020335173,807.0696,805.05493,811.50183,807.8755,644.68866,-0.21392822265625,-0.00860595703125,0.995849609375,5.00946044921875,-2.55706787109375,-7.843170166015625,1,1.0,1.0,1.0,1.0,50.00
2022-11-23 20:22:26.090,0.6717394,0.2668425,0.1487103,0.9193555,0.7452379,0.28626406,0.25898042,0.8119515,0.70737654,0.16836952,0.13210213,0.60368276,-0.009294162,-0.2810848,-0.124760345,0.35153648,-0.12525027,-0.48280495,-0.4713468,0.020335173,850.989,805.05493,817.1429,841.7216,1014.17584,-0.21392822265625,-0.00860595703125,0.995849609375,5.00946044921875,-2.55706787109375,-7.843170166015625,1,1.0,1.0,1.0,1.0,50.00
2022-11-23 20:22:26.090,0.6717394,0.2668425,0.1487103,0.9193555,0.7452379,0.28626406,0.25898042,0.8119515,0.70737654,0.16836952,0.13210213,0.60368276,-0.009294162,-0.2810848,-0.124760345,0.35153648,-0.12525027,-0.48280495,-0.4713468,0.020335173,844.1392,804.2491,820.3663,839.707,1123.37,-0.21392822265625,-0.00860595703125,0.995849609375,5.00946044921875,-2.55706787109375,-7.843170166015625,1,1.0,1.0,1.0,1.0,50.00
2022-11-23 20:22:26.091,0.6717394,0.2668425,0.1487103,0.9193555,0.7452379,0.28626406,0.25898042,0.8119515,0.70737654,0.16836952,0.13210213,0.60368276,-0.009294162,-0.2810848,-0.124760345,0.35153648,-0.12525027,-0.48280495,-0.4713468,0.020335173,804.65204,803.8461,816.337,812.3077,739.7802,-0.21392822265625,-0.00860595703125,0.995849609375,5.00946044921875,-2.55706787109375,-7.843170166015625,1,1.0,1.0,1.0,1.0,50.00
2022-11-23 20:22:26.091,0.6717394,0.2668425,0.1487103,0.9193555,0.7452379,0.28626406,0.25898042,0.8119515,0.70737654,0.16836952,0.13210213,0.60368276,-0.009294162,-0.2810848,-0.124760345,0.35153648,-0.12525027,-0.48280495,-0.4713468,0.020335173,794.9817,799.81683,810.696,809.4872,600.7692,-0.21392822265625,-0.00860595703125,0.995849609375,5.00946044921875,-2.55706787109375,-7.843170166015625,1,1.0,1.0,1.0,1.0,50.00
2022-11-23 20:22:26.091,0.6717394,0.2668425,0.1487103,0.9193555,0.7452379,0.28626406,0.25898042,0.8119515,0.70737654,0.16836952,0.13210213,0.60368276,-0.009294162,-0.2810848,-0.124760345,0.35153648,-0.12525027,-0.48280495,-0.4713468,0.020335173,832.0513,801.4286,810.696,834.87177,806.6667,-0.21392822265625,-0.00860595703125,0.995849609375,5.00946044921875,-2.55706787109375,-7.843170166015625,1,1.0,1.0,1.0,1.0,50.00
2022-11-23 20:22:26.092,0.6717394,0.2668425,0.1487103,0.9193555,0.7452379,0.28626406,0.25898042,0.8119515,0.70737654,0.16836952,0.13210213,0.60368276,-0.009294162,-0.2810848,-0.124760345,0.35153648,-0.12525027,-0.48280495,-0.4713468,0.020335173,847.3626,807.47253,814.3223,837.28937,888.0586,-0.21392822265625,-0.00860595703125,0.995849609375,5.00946044921875,-2.55706787109375,-7.843170166015625,1,1.0,1.0,1.0,1.0,50.00
2022-11-23 20:22:26.092,0.6717394,0.2668425,0.1487103,0.9193555,0.7452379,0.28626406,0.25898042,0.8119515,0.70737654,0.16836952,0.13210213,0.60368276,-0.009294162,-0.2810848,-0.124760345,0.35153648,-0.12525027,-0.48280495,-0.4713468,0.020335173,803.44324,804.65204,809.89014,806.26373,680.54944,-0.21392822265625,-0.00860595703125,0.995849609375,5.00946044921875,-2.55706787109375,-7.843170166015625,1,1.0,1.0,1.0,1.0,50.00
2022-11-23 20:22:26.138,0.6717394,0.2668425,0.1487103,0.9193555,0.7452379,0.28626406,0.25898042,0.8119515,0.70737654,0.16836952,0.13210213,0.60368276,-0.009294162,-0.2810848,-0.124760345,0.35153648,-0.12525027,-0.48280495,-0.4713468,0.020335173,779.2674,801.8315,807.0696,799.41394,548.7912,-0.19427490234375,-0.00860595703125,1.001953125,3.72344970703125,-4.553375244140625,-8.112335205078125,1,1.0,1.0,1.0,1.0,50.00
2022-11-23 20:22:26.139,0.67285687,0.58395267,0.46113437,0.92027855,0.718734,0.30297145,0.3088072,0.7559935,0.70737654,0.1634464,0.12022144,0.5951177,-3.5088343E-4,-0.2882113,-0.11644149,0.35256428,-0.11618997,-0.4741555,-0.49195674,0.030210914,812.71063,800.2198,807.8755,830.4396,790.14655,-0.19427490234375,-0.00860595703125,1.001953125,3.72344970703125,-4.553375244140625,-8.112335205078125,1,1.0,1.0,1.0,1.0,50.00
2022-11-23 20:22:26.140,0.67285687,0.58395267,0.46113437,0.92027855,0.718734,0.30297145,0.3088072,0.7559935,0.70737654,0.1634464,0.12022144,0.5951177,-3.5088343E-4,-0.2882113,-0.11644149,0.35256428,-0.11618997,-0.4741555,-0.49195674,0.030210914,836.8865,798.60803,805.8608,840.9158,967.8388,-0.19427490234375,-0.00860595703125,1.001953125,3.72344970703125,-4.553375244140625,-8.112335205078125,1,1.0,1.0,1.0,1.0,50.00
2022-11-23 20:22:26.140,0.67285687,0.58395267,0.46113437,0.92027855,0.718734,0.30297145,0.3088072,0.7559935,0.70737654,0.1634464,0.12022144,0.5951177,-3.5088343E-4,-0.2882113,-0.11644149,0.35256428,-0.11618997,-0.4741555,-0.49195674,0.030210914,811.9048,799.81683,805.4579,817.9487,737.3626,-0.19427490234375,-0.00860595703125,1.001953125,3.72344970703125,-4.553375244140625,-8.112335205078125,1,1.0,1.0,1.0,1.0,50.00
2022-11-23 20:22:26.140,0.67285687,0.58395267,0.46113437,0.92027855,0.718734,0.30297145,0.3088072,0.7559935,0.70737654,0.1634464,0.12022144,0.5951177,-3.5088343E-4,-0.2882113,-0.11644149,0.35256428,-0.11618997,-0.4741555,-0.49195674,0.030210914,781.28204,798.20514,803.8461,798.60803,618.9011,-0.19427490234375,-0.00860595703125,1.001953125,3.72344970703125,-4.553375244140625,-8.112335205078125,1,1.0,1.0,1.0,1.0,50.00
2022-11-23 20:22:26.141,0.67285687,0.58395267,0.46113437,0.92027855,0.718734,0.30297145,0.3088072,0.7559935,0.70737654,0.1634464,0.12022144,0.5951177,-3.5088343E-4,-0.2882113,-0.11644149,0.35256428,-0.11618997,-0.4741555,-0.49195674,0.030210914,801.8315,794.9817,800.6227,813.1135,691.4286,-0.19427490234375,-0.00860595703125,1.001953125,3.72344970703125,-4.553375244140625,-8.112335205078125,1,1.0,1.0,1.0,1.0,50.00
2022-11-23 20:22:26.141,0.67285687,0.58395267,0.46113437,0.92027855,0.718734,0.30297145,0.3088072,0.7559935,0.70737654,0.1634464,0.12022144,0.5951177,-3.5088343E-4,-0.2882113,-0.11644149,0.35256428,-0.11618997,-0.4741555,-0.49195674,0.030210914,836.8865,795.78754,799.81683,836.08057,913.44324,-0.19427490234375,-0.00860595703125,1.001953125,3.72344970703125,-4.553375244140625,-8.112335205078125,1,1.0,1.0,1.0,1.0,50.00
2022-11-23 20:22:26.141,0.67285687,0.58395267,0.46113437,0.92027855,0.718734,0.30297145,0.3088072,0.7559935,0.70737654,0.1634464,0.12022144,0.5951177,-3.5088343E-4,-0.2882113,-0.11644149,0.35256428,-0.11618997,-0.4741555,-0.49195674,0.030210914,818.3516,798.60803,800.2198,823.1868,977.50916,-0.19427490234375,-0.00860595703125,1.001953125,3.72344970703125,-4.553375244140625,-8.112335205078125,1,1.0,1.0,1.0,1.0,50.00
2022-11-23 20:22:26.141,0.67285687,0.58395267,0.46113437,0.92027855,0.718734,0.30297145,0.3088072,0.7559935,0.70737654,0.1634464,0.12022144,0.5951177,-3.5088343E-4,-0.2882113,-0.11644149,0.35256428,-0.11618997,-0.4741555,-0.49195674,0.030210914,778.46155,796.5934,801.02563,794.17584,686.1905,-0.19427490234375,-0.00860595703125,1.001953125,3.72344970703125,-4.553375244140625,-8.112335205078125,1,1.0,1.0,1.0,1.0,50.00
2022-11-23 20:22:26.142,0.67285687,0.58395267,0.46113437,0.92027855,0.718734,0.30297145,0.3088072,0.7559935,0.70737654,0.1634464,0.12022144,0.5951177,-3.5088343E-4,-0.2882113,-0.11644149,0.35256428,-0.11618997,-0.4741555,-0.49195674,0.030210914,784.10254,797.3993,803.8461,803.44324,724.87177,-0.19427490234375,-0.00860595703125,1.001953125,3.72344970703125,-4.553375244140625,-8.112335205078125,1,1.0,1.0,1.0,1.0,50.00
2022-11-23 20:22:26.142,0.67285687,0.58395267,0.46113437,0.92027855,0.718734,0.30297145,0.3088072,0.7559935,0.70737654,0.1634464,0.12022144,0.5951177,-3.5088343E-4,-0.2882113,-0.11644149,0.35256428,-0.11618997,-0.4741555,-0.49195674,0.030210914,818.3516,796.5934,804.2491,826.0073,916.26373,-0.19427490234375,-0.00860595703125,1.001953125,3.72344970703125,-4.553375244140625,-8.112335205078125,1,1.0,1.0,1.0,1.0,50.00
2022-11-23 20:22:26.142,0.67285687,0.58395267,0.46113437,0.92027855,0.718734,0.30297145,0.3088072,0.7559935,0.70737654,0.1634464,0.12022144,0.5951177,-3.5088343E-4,-0.2882113,-0.11644149,0.35256428,-0.11618997,-0.4741555,-0.49195674,0.030210914,823.9927,788.1319,801.4286,815.12823,799.011,-0.19427490234375,-0.00860595703125,1.001953125,3.72344970703125,-4.553375244140625,-8.112335205078125,1,1.0,1.0,1.0,1.0,50.00
2022-11-23 20:22:26.189,0.67285687,0.58395267,0.46113437,0.92027855,0.718734,0.30297145,0.3088072,0.7559935,0.70737654,0.1634464,0.12022144,0.5951177,-3.5088343E-4,-0.2882113,-0.11644149,0.35256428,-0.11618997,-0.4741555,-0.49195674,0.030210914,786.52014,789.34064,801.8315,794.57874,641.8681,-0.16973876953125,-0.00970458984375,1.00860595703125,1.278533935546875,-5.5029296875,-4.94964599609375,1,1.0,1.0,1.0,1.0,50.00
2022-11-23 20:22:26.189,0.67285687,0.58395267,0.46113437,0.92027855,0.718734,0.30297145,0.3088072,0.7559935,0.70737654,0.1634464,0.12022144,0.5951177,-3.5088343E-4,-0.2882113,-0.11644149,0.35256428,-0.11618997,-0.4741555,-0.49195674,0.030210914,774.0293,793.7729,801.8315,794.57874,713.1868,-0.16973876953125,-0.00970458984375,1.00860595703125,1.278533935546875,-5.5029296875,-4.94964599609375,1,1.0,1.0,1.0,1.0,50.00
2022-11-23 20:22:26.189,0.67285687,0.58395267,0.46113437,0.92027855,0.718734,0.30297145,0.3088072,0.7559935,0.70737654,0.1634464,0.12022144,0.5951177,-3.5088343E-4,-0.2882113,-0.11644149,0.35256428,-0.11618997,-0.4741555,-0.49195674,0.030210914,810.696,791.75824,804.65204,820.3663,824.3956,-0.16973876953125,-0.00970458984375,1.00860595703125,1.278533935546875,-5.5029296875,-4.94964599609375,1,1.0,1.0,1.0,1.0,50.00
2022-11-23 20:22:26.190,0.67285687,0.58395267,0.46113437,0.92027855,0.718734,0.30297145,0.3088072,0.7559935,0.70737654,0.1634464,0.12022144,0.5951177,-3.5088343E-4,-0.2882113,-0.11644149,0.35256428,-0.11618997,-0.4741555,-0.49195674,0.030210914,821.1722,790.54944,802.6374,822.7839,817.5458,-0.16973876953125,-0.00970458984375,1.00860595703125,1.278533935546875,-5.5029296875,-4.94964599609375,1,1.0,1.0,1.0,1.0,50.00
2022-11-23 20:22:26.190,0.67285687,0.58395267,0.46113437,0.92027855,0.718734,0.30297145,0.3088072,0.7559935,0.70737654,0.1634464,0.12022144,0.5951177,-3.5088343E-4,-0.2882113,-0.11644149,0.35256428,-0.11618997,-0.4741555,-0.49195674,0.030210914,783.69965,790.54944,800.2198,785.31134,713.9927,-0.16973876953125,-0.00970458984375,1.00860595703125,1.278533935546875,-5.5029296875,-4.94964599609375,1,1.0,1.0,1.0,1.0,50.00
2022-11-23 20:22:26.190,0.67285687,0.58395267,0.46113437,0.92027855,0.718734,0.30297145,0.3088072,0.7559935,0.70737654,0.1634464,0.12022144,0.5951177,-3.5088343E-4,-0.2882113,-0.11644149,0.35256428,-0.11618997,-0.4741555,-0.49195674,0.030210914,761.13556,799.011,803.44324,771.6117,684.17584,-0.16973876953125,-0.00970458984375,1.00860595703125,1.278533935546875,-5.5029296875,-4.94964599609375,1,1.0,1.0,1.0,1.0,50.00
2022-11-23 20:22:26.191,0.67285687,0.58395267,0.46113437,0.92027855,0.718734,0.30297145,0.3088072,0.7559935,0.70737654,0.1634464,0.12022144,0.5951177,-3.5088343E-4,-0.2882113,-0.11644149,0.35256428,-0.11618997,-0.4741555,-0.49195674,0.030210914,792.1612,799.011,804.2491,796.5934,759.5238,-0.16973876953125,-0.00970458984375,1.00860595703125,1.278533935546875,-5.5029296875,-4.94964599609375,1,1.0,1.0,1.0,1.0,50.00
2022-11-23 20:22:26.191,0.67285687,0.58395267,0.46113437,0.92027855,0.718734,0.30297145,0.3088072,0.7559935,0.70737654,0.1634464,0.12022144,0.5951177,-3.5088343E-4,-0.2882113,-0.11644149,0.35256428,-0.11618997,-0.4741555,-0.49195674,0.030210914,820.7692,793.7729,807.8755,812.71063,819.9634,-0.16973876953125,-0.00970458984375,1.00860595703125,1.278533935546875,-5.5029296875,-4.94964599609375,1,1.0,1.0,1.0,1.0,50.00
2022-11-23 20:22:26.191,0.67285687,0.58395267,0.46113437,0.92027855,0.718734,0.30297145,0.3088072,0.7559935,0.70737654,0.1634464,0.12022144,0.5951177,-3.5088343E-4,-0.2882113,-0.11644149,0.35256428,-0.11618997,-0.4741555,-0.49195674,0.030210914,800.2198,794.9817,809.4872,801.4286,877.98535,-0.16973876953125,-0.00970458984375,1.00860595703125,1.278533935546875,-5.5029296875,-4.94964599609375,1,1.0,1.0,1.0,1.0,50.00
2022-11-23 20:22:26.191,0.67285687,0.58395267,0.46113437,0.92027855,0.718734,0.30297145,0.3088072,0.7559935,0.70737654,0.1634464,0.12022144,0.5951177,-3.5088343E-4,-0.2882113,-0.11644149,0.35256428,-0.11618997,-0.4741555,-0.49195674,0.030210914,764.7619,796.5934,805.05493,783.2967,858.6447,-0.16973876953125,-0.00970458984375,1.00860595703125,1.278533935546875,-5.5029296875,-4.94964599609375,1,1.0,1.0,1.0,1.0,50.00
2022-11-23 20:22:26.192,0.67285687,0.58395267,0.46113437,0.92027855,0.718734,0.30297145,0.3088072,0.7559935,0.70737654,0.1634464,0.12022144,0.5951177,-3.5088343E-4,-0.2882113,-0.11644149,0.35256428,-0.11618997,-0.4741555,-0.49195674,0.030210914,781.28204,798.60803,803.8461,799.41394,730.9158,-0.16973876953125,-0.00970458984375,1.00860595703125,1.278533935546875,-5.5029296875,-4.94964599609375,1,1.0,1.0,1.0,1.0,50.00
2022-11-23 20:22:26.192,0.67285687,0.58395267,0.46113437,0.92027855,0.718734,0.30297145,0.3088072,0.7559935,0.70737654,0.1634464,0.12022144,0.5951177,-3.5088343E-4,-0.2882113,-0.11644149,0.35256428,-0.11618997,-0.4741555,-0.49195674,0.030210914,820.7692,801.02563,803.8461,826.0073,827.2161,-0.16973876953125,-0.00970458984375,1.00860595703125,1.278533935546875,-5.5029296875,-4.94964599609375,1,1.0,1.0,1.0,1.0,50.00
2022-11-23 20:22:26.234,0.67285687,0.58395267,0.46113437,0.92027855,0.718734,0.30297145,0.3088072,0.7559935,0.70737654,0.1634464,0.12022144,0.5951177,-3.5088343E-4,-0.2882113,-0.11644149,0.35256428,-0.11618997,-0.4741555,-0.49195674,0.030210914,813.91943,805.05493,808.2784,815.9341,848.1685,-0.1827392578125,-0.0220947265625,0.9996337890625,0.76263427734375,-2.848663330078125,-3.06549072265625,1,1.0,1.0,1.0,1.0,50.00
2022-11-23 20:22:26.234,0.67285687,0.58395267,0.46113437,0.92027855,0.718734,0.30297145,0.3088072,0.7559935,0.70737654,0.1634464,0.12022144,0.5951177,-3.5088343E-4,-0.2882113,-0.11644149,0.35256428,-0.11618997,-0.4741555,-0.49195674,0.030210914,777.6557,805.05493,810.696,784.90845,723.2601,-0.1827392578125,-0.0220947265625,0.9996337890625,0.76263427734375,-2.848663330078125,-3.06549072265625,1,1.0,1.0,1.0,1.0,50.00
2022-11-23 20:22:26.235,0.67285687,0.58395267,0.46113437,0.92027855,0.718734,0.30297145,0.3088072,0.7559935,0.70737654,0.1634464,0.12022144,0.5951177,-3.5088343E-4,-0.2882113,-0.11644149,0.35256428,-0.11618997,-0.4741555,-0.49195674,0.030210914,775.2381,801.8315,807.8755,782.8938,697.47253,-0.1827392578125,-0.0220947265625,0.9996337890625,0.76263427734375,-2.848663330078125,-3.06549072265625,1,1.0,1.0,1.0,1.0,50.00
2022-11-23 20:22:26.235,0.6740583,0.86363065,0.4769315,0.9167797,0.71292377,0.4186291,0.28216234,0.71720314,0.7058164,0.23454022,0.114705,0.5931828,0.0040430813,-0.29927894,-0.11056536,0.3614079,-0.109866045,-0.47127256,-0.51647514,0.046580445,812.3077,798.60803,807.8755,814.3223,913.8461,-0.1827392578125,-0.0220947265625,0.9996337890625,0.76263427734375,-2.848663330078125,-3.06549072265625,1,1.0,1.0,1.0,1.0,50.00
2022-11-23 20:22:26.236,0.6740583,0.86363065,0.4769315,0.9167797,0.71292377,0.4186291,0.28216234,0.71720314,0.7058164,0.23454022,0.114705,0.5931828,0.0040430813,-0.29927894,-0.11056536,0.3614079,-0.109866045,-0.47127256,-0.51647514,0.046580445,823.5897,801.4286,805.8608,822.381,1092.7472,-0.1827392578125,-0.0220947265625,0.9996337890625,0.76263427734375,-2.848663330078125,-3.06549072265625,1,1.0,1.0,1.0,1.0,50.00
2022-11-23 20:22:26.237,0.6740583,0.86363065,0.4769315,0.9167797,0.71292377,0.4186291,0.28216234,0.71720314,0.7058164,0.23454022,0.114705,0.5931828,0.0040430813,-0.29927894,-0.11056536,0.3614079,-0.109866045,-0.47127256,-0.51647514,0.046580445,787.72894,803.0403,805.4579,793.36993,956.9597,-0.1827392578125,-0.0220947265625,0.9996337890625,0.76263427734375,-2.848663330078125,-3.06549072265625,1,1.0,1.0,1.0,1.0,50.00
2022-11-23 20:22:26.237,0.6740583,0.86363065,0.4769315,0.9167797,0.71292377,0.4186291,0.28216234,0.71720314,0.7058164,0.23454022,0.114705,0.5931828,0.0040430813,-0.29927894,-0.11056536,0.3614079,-0.109866045,-0.47127256,-0.51647514,0.046580445,774.83514,802.6374,808.2784,788.1319,842.52747,-0.1827392578125,-0.0220947265625,0.9996337890625,0.76263427734375,-2.848663330078125,-3.06549072265625,1,1.0,1.0,1.0,1.0,50.00
2022-11-23 20:22:26.237,0.6740583,0.86363065,0.4769315,0.9167797,0.71292377,0.4186291,0.28216234,0.71720314,0.7058164,0.23454022,0.114705,0.5931828,0.0040430813,-0.29927894,-0.11056536,0.3614079,-0.109866045,-0.47127256,-0.51647514,0.046580445,811.9048,801.8315,805.05493,815.12823,922.71063,-0.1827392578125,-0.0220947265625,0.9996337890625,0.76263427734375,-2.848663330078125,-3.06549072265625,1,1.0,1.0,1.0,1.0,50.00
2022-11-23 20:22:26.237,0.6740583,0.86363065,0.4769315,0.9167797,0.71292377,0.4186291,0.28216234,0.71720314,0.7058164,0.23454022,0.114705,0.5931828,0.0040430813,-0.29927894,-0.11056536,0.3614079,-0.109866045,-0.47127256,-0.51647514,0.046580445,834.0659,801.8315,799.81683,834.87177,1172.1245,-0.1827392578125,-0.0220947265625,0.9996337890625,0.76263427734375,-2.848663330078125,-3.06549072265625,1,1.0,1.0,1.0,1.0,50.00
2022-11-23 20:22:26.237,0.6740583,0.86363065,0.4769315,0.9167797,0.71292377,0.4186291,0.28216234,0.71720314,0.7058164,0.23454022,0.114705,0.5931828,0.0040430813,-0.29927894,-0.11056536,0.3614079,-0.109866045,-0.47127256,-0.51647514,0.046580445,805.8608,801.4286,799.011,812.3077,1021.02563,-0.1827392578125,-0.0220947265625,0.9996337890625,0.76263427734375,-2.848663330078125,-3.06549072265625,1,1.0,1.0,1.0,1.0,50.00
2022-11-23 20:22:26.238,0.6740583,0.86363065,0.4769315,0.9167797,0.71292377,0.4186291,0.28216234,0.71720314,0.7058164,0.23454022,0.114705,0.5931828,0.0040430813,-0.29927894,-0.11056536,0.3614079,-0.109866045,-0.47127256,-0.51647514,0.046580445,774.83514,804.2491,799.81683,783.2967,603.5897,-0.1827392578125,-0.0220947265625,0.9996337890625,0.76263427734375,-2.848663330078125,-3.06549072265625,1,1.0,1.0,1.0,1.0,50.00
2022-11-23 20:22:26.238,0.6740583,0.86363065,0.4769315,0.9167797,0.71292377,0.4186291,0.28216234,0.71720314,0.7058164,0.23454022,0.114705,0.5931828,0.0040430813,-0.29927894,-0.11056536,0.3614079,-0.109866045,-0.47127256,-0.51647514,0.046580445,795.78754,805.8608,801.8315,805.05493,705.9341,-0.1827392578125,-0.0220947265625,0.9996337890625,0.76263427734375,-2.848663330078125,-3.06549072265625,1,1.0,1.0,1.0,1.0,50.00
2022-11-23 20:22:26.263,0.6740583,0.86363065,0.4769315,0.9167797,0.71292377,0.4186291,0.28216234,0.71720314,0.7058164,0.23454022,0.114705,0.5931828,0.0040430813,-0.29927894,-0.11056536,0.3614079,-0.109866045,-0.47127256,-0.51647514,0.046580445,833.663,803.8461,798.20514,824.3956,901.75824,-0.1827392578125,-0.0220947265625,0.9996337890625,0.76263427734375,-2.848663330078125,-3.06549072265625,1,1.0,1.0,1.0,1.0,50.00
2022-11-23 20:22:26.264,0.6740583,0.86363065,0.4769315,0.9167797,0.71292377,0.4186291,0.28216234,0.71720314,0.7058164,0.23454022,0.114705,0.5931828,0.0040430813,-0.29927894,-0.11056536,0.3614079,-0.109866045,-0.47127256,-0.51647514,0.046580445,813.5165,807.47253,795.78754,806.6667,834.0659,-0.1827392578125,-0.0220947265625,0.9996337890625,0.76263427734375,-2.848663330078125,-3.06549072265625,1,1.0,1.0,1.0,1.0,50.00
2022-11-23 20:22:26.264,0.6740583,0.86363065,0.4769315,0.9167797,0.71292377,0.4186291,0.28216234,0.71720314,0.7058164,0.23454022,0.114705,0.5931828,0.0040430813,-0.29927894,-0.11056536,0.3614079,-0.109866045,-0.47127256,-0.51647514,0.046580445,773.22345,807.8755,801.02563,786.1172,612.8571,-0.1827392578125,-0.0220947265625,0.9996337890625,0.76263427734375,-2.848663330078125,-3.06549072265625,1,1.0,1.0,1.0,1.0,50.00
2022-11-23 20:22:26.264,0.6740583,0.86363065,0.4769315,0.9167797,0.71292377,0.4186291,0.28216234,0.71720314,0.7058164,0.23454022,0.114705,0.5931828,0.0040430813,-0.29927894,-0.11056536,0.3614079,-0.109866045,-0.47127256,-0.51647514,0.046580445,784.90845,804.65204,799.011,794.17584,664.0293,-0.1827392578125,-0.0220947265625,0.9996337890625,0.76263427734375,-2.848663330078125,-3.06549072265625,1,1.0,1.0,1.0,1.0,50.00
2022-11-23 20:22:26.265,0.6740583,0.86363065,0.4769315,0.9167797,0.71292377,0.4186291,0.28216234,0.71720314,0.7058164,0.23454022,0.114705,0.5931828,0.0040430813,-0.29927894,-0.11056536,0.3614079,-0.109866045,-0.47127256,-0.51647514,0.046580445,821.1722,801.4286,794.9817,811.50183,978.315,-0.1827392578125,-0.0220947265625,0.9996337890625,0.76263427734375,-2.848663330078125,-3.06549072265625,1,1.0,1.0,1.0,1.0,50.00
2022-11-23 20:22:26.265,0.6740583,0.86363065,0.4769315,0.9167797,0.71292377,0.4186291,0.28216234,0.71720314,0.7058164,0.23454022,0.114705,0.5931828,0.0040430813,-0.29927894,-0.11056536,0.3614079,-0.109866045,-0.47127256,-0.51647514,0.046580445,813.91943,801.02563,796.99634,807.8755,967.4359,-0.1827392578125,-0.0220947265625,0.9996337890625,0.76263427734375,-2.848663330078125,-3.06549072265625,1,1.0,1.0,1.0,1.0,50.00
2022-11-23 20:22:26.265,0.6740583,0.86363065,0.4769315,0.9167797,0.71292377,0.4186291,0.28216234,0.71720314,0.7058164,0.23454022,0.114705,0.5931828,0.0040430813,-0.29927894,-0.11056536,0.3614079,-0.109866045,-0.47127256,-0.51647514,0.046580445,781.28204,804.65204,800.6227,784.10254,705.12823,-0.1827392578125,-0.0220947265625,0.9996337890625,0.76263427734375,-2.848663330078125,-3.06549072265625,1,1.0,1.0,1.0,1.0,50.00
2022-11-23 20:22:26.265,0.6740583,0.86363065,0.4769315,0.9167797,0.71292377,0.4186291,0.28216234,0.71720314,0.7058164,0.23454022,0.114705,0.5931828,0.0040430813,-0.29927894,-0.11056536,0.3614079,-0.109866045,-0.47127256,-0.51647514,0.046580445,779.2674,803.8461,802.6374,782.0879,767.1795,-0.1827392578125,-0.0220947265625,0.9996337890625,0.76263427734375,-2.848663330078125,-3.06549072265625,1,1.0,1.0,1.0,1.0,50.00
2022-11-23 20:22:26.266,0.6740583,0.86363065,0.4769315,0.9167797,0.71292377,0.4186291,0.28216234,0.71720314,0.7058164,0.23454022,0.114705,0.5931828,0.0040430813,-0.29927894,-0.11056536,0.3614079,-0.109866045,-0.47127256,-0.51647514,0.046580445,807.47253,801.02563,800.2198,809.89014,1194.2858,-0.1827392578125,-0.0220947265625,0.9996337890625,0.76263427734375,-2.848663330078125,-3.06549072265625,1,1.0,1.0,1.0,1.0,50.00
2022-11-23 20:22:26.266,0.6740583,0.86363065,0.4769315,0.9167797,0.71292377,0.4186291,0.28216234,0.71720314,0.7058164,0.23454022,0.114705,0.5931828,0.0040430813,-0.29927894,-0.11056536,0.3614079,-0.109866045,-0.47127256,-0.51647514,0.046580445,814.3223,799.011,800.2198,811.9048,1134.249,-0.1827392578125,-0.0220947265625,0.9996337890625,0.76263427734375,-2.848663330078125,-3.06549072265625,1,1.0,1.0,1.0,1.0,50.00
2022-11-23 20:22:26.266,0.6740583,0.86363065,0.4769315,0.9167797,0.71292377,0.4186291,0.28216234,0.71720314,0.7058164,0.23454022,0.114705,0.5931828,0.0040430813,-0.29927894,-0.11056536,0.3614079,-0.109866045,-0.47127256,-0.51647514,0.046580445,772.4176,797.3993,801.02563,776.04395,797.3993,-0.1827392578125,-0.0220947265625,0.9996337890625,0.76263427734375,-2.848663330078125,-3.06549072265625,1,1.0,1.0,1.0,1.0,50.00
2022-11-23 20:22:26.266,0.6740583,0.86363065,0.4769315,0.9167797,0.71292377,0.4186291,0.28216234,0.71720314,0.7058164,0.23454022,0.114705,0.5931828,0.0040430813,-0.29927894,-0.11056536,0.3614079,-0.109866045,-0.47127256,-0.51647514,0.046580445,761.13556,800.2198,798.20514,765.56775,725.2747,-0.1827392578125,-0.0220947265625,0.9996337890625,0.76263427734375,-2.848663330078125,-3.06549072265625,1,1.0,1.0,1.0,1.0,50.00
2022-11-23 20:22:26.314,0.6740583,0.86363065,0.4769315,0.9167797,0.71292377,0.4186291,0.28216234,0.71720314,0.7058164,0.23454022,0.114705,0.5931828,0.0040430813,-0.29927894,-0.11056536,0.3614079,-0.109866045,-0.47127256,-0.51647514,0.046580445,803.44324,799.41394,796.1905,797.8022,791.75824,-0.177001953125,-0.02386474609375,1.00341796875,2.893524169921875,-1.487884521484375,-3.15521240234375,1,1.0,1.0,1.0,1.0,50.00
2022-11-23 20:22:26.314,0.6740583,0.86363065,0.4769315,0.9167797,0.71292377,0.4186291,0.28216234,0.71720314,0.7058164,0.23454022,0.114705,0.5931828,0.0040430813,-0.29927894,-0.11056536,0.3614079,-0.109866045,-0.47127256,-0.51647514,0.046580445,830.4396,797.8022,798.20514,817.9487,784.10254,-0.177001953125,-0.02386474609375,1.00341796875,2.893524169921875,-1.487884521484375,-3.15521240234375,1,1.0,1.0,1.0,1.0,50.00
2022-11-23 20:22:26.314,0.6740583,0.86363065,0.4769315,0.9167797,0.71292377,0.4186291,0.28216234,0.71720314,0.7058164,0.23454022,0.114705,0.5931828,0.0040430813,-0.29927894,-0.11056536,0.3614079,-0.109866045,-0.47127256,-0.51647514,0.046580445,801.4286,796.99634,799.41394,794.17584,674.10254,-0.177001953125,-0.02386474609375,1.00341796875,2.893524169921875,-1.487884521484375,-3.15521240234375,1,1.0,1.0,1.0,1.0,50.00
2022-11-23 20:22:26.315,0.6740583,0.86363065,0.4769315,0.9167797,0.71292377,0.4186291,0.28216234,0.71720314,0.7058164,0.23454022,0.114705,0.5931828,0.0040430813,-0.29927894,-0.11056536,0.3614079,-0.109866045,-0.47127256,-0.51647514,0.046580445,771.6117,796.5934,798.20514,774.43225,577.8022,-0.177001953125,-0.02386474609375,1.00341796875,2.893524169921875,-1.487884521484375,-3.15521240234375,1,1.0,1.0,1.0,1.0,50.00
2022-11-23 20:22:26.315,0.6740583,0.86363065,0.4769315,0.9167797,0.71292377,0.4186291,0.28216234,0.71720314,0.7058164,0.23454022,0.114705,0.5931828,0.0040430813,-0.29927894,-0.11056536,0.3614079,-0.109866045,-0.47127256,-0.51647514,0.046580445,794.9817,796.99634,803.44324,791.75824,621.31866,-0.177001953125,-0.02386474609375,1.00341796875,2.893524169921875,-1.487884521484375,-3.15521240234375,1,1.0,1.0,1.0,1.0,50.00
2022-11-23 20:22:26.315,0.67733866,0.8901901,0.49768475,0.92148894,0.719279,0.41927722,0.26812318,0.6960374,0.70258445,0.22553599,0.114705,0.5828165,0.0071915886,-0.3088539,-0.10758484,0.37609246,-0.1111121,-0.48187864,-0.5332314,0.06892919,823.9927,795.78754,804.65204,811.50183,809.89014,-0.177001953125,-0.02386474609375,1.00341796875,2.893524169921875,-1.487884521484375,-3.15521240234375,1,1.0,1.0,1.0,1.0,50.00
2022-11-23 20:22:26.317,0.67733866,0.8901901,0.49768475,0.92148894,0.719279,0.41927722,0.26812318,0.6960374,0.70258445,0.22553599,0.114705,0.5828165,0.0071915886,-0.3088539,-0.10758484,0.37609246,-0.1111121,-0.48187864,-0.5332314,0.06892919,803.8461,795.78754,796.1905,795.38464,759.5238,-0.177001953125,-0.02386474609375,1.00341796875,2.893524169921875,-1.487884521484375,-3.15521240234375,1,1.0,1.0,1.0,1.0,50.00
2022-11-23 20:22:26.317,0.67733866,0.8901901,0.49768475,0.92148894,0.719279,0.41927722,0.26812318,0.6960374,0.70258445,0.22553599,0.114705,0.5828165,0.0071915886,-0.3088539,-0.10758484,0.37609246,-0.1111121,-0.48187864,-0.5332314,0.06892919,765.9707,794.9817,795.78754,770.0,801.02563,-0.177001953125,-0.02386474609375,1.00341796875,2.893524169921875,-1.487884521484375,-3.15521240234375,1,1.0,1.0,1.0,1.0,50.00
2022-11-23 20:22:26.317,0.67733866,0.8901901,0.49768475,0.92148894,0.719279,0.41927722,0.26812318,0.6960374,0.70258445,0.22553599,0.114705,0.5828165,0.0071915886,-0.3088539,-0.10758484,0.37609246,-0.1111121,-0.48187864,-0.5332314,0.06892919,770.40295,797.3993,802.23444,782.49084,935.6044,-0.177001953125,-0.02386474609375,1.00341796875,2.893524169921875,-1.487884521484375,-3.15521240234375,1,1.0,1.0,1.0,1.0,50.00
2022-11-23 20:22:26.317,0.67733866,0.8901901,0.49768475,0.92148894,0.719279,0.41927722,0.26812318,0.6960374,0.70258445,0.22553599,0.114705,0.5828165,0.0071915886,-0.3088539,-0.10758484,0.37609246,-0.1111121,-0.48187864,-0.5332314,0.06892919,812.71063,798.20514,803.44324,803.8461,836.8865,-0.177001953125,-0.02386474609375,1.00341796875,2.893524169921875,-1.487884521484375,-3.15521240234375,1,1.0,1.0,1.0,1.0,50.00
2022-11-23 20:22:26.318,0.67733866,0.8901901,0.49768475,0.92148894,0.719279,0.41927722,0.26812318,0.6960374,0.70258445,0.22553599,0.114705,0.5828165,0.0071915886,-0.3088539,-0.10758484,0.37609246,-0.1111121,-0.48187864,-0.5332314,0.06892919,814.7253,795.38464,798.60803,799.011,861.8681,-0.177001953125,-0.02386474609375,1.00341796875,2.893524169921875,-1.487884521484375,-3.15521240234375,1,1.0,1.0,1.0,1.0,50.00
2022-11-23 20:22:26.318,0.67733866,0.8901901,0.49768475,0.92148894,0.719279,0.41927722,0.26812318,0.6960374,0.70258445,0.22553599,0.114705,0.5828165,0.0071915886,-0.3088539,-0.10758484,0.37609246,-0.1111121,-0.48187864,-0.5332314,0.06892919,769.19415,792.1612,797.3993,772.8205,693.8461,-0.177001953125,-0.02386474609375,1.00341796875,2.893524169921875,-1.487884521484375,-3.15521240234375,1,1.0,1.0,1.0,1.0,50.00
2022-11-23 20:22:26.364,0.67733866,0.8901901,0.49768475,0.92148894,0.719279,0.41927722,0.26812318,0.6960374,0.70258445,0.22553599,0.114705,0.5828165,0.0071915886,-0.3088539,-0.10758484,0.37609246,-0.1111121,-0.48187864,-0.5332314,0.06892919,760.7326,792.5641,801.4286,772.8205,560.87915,-0.18780517578125,-0.01800537109375,1.006591796875,2.46734619140625,-0.31402587890625,-1.2261962890625,1,1.0,1.0,1.0,1.0,50.00
2022-11-23 20:22:26.364,0.67733866,0.8901901,0.49768475,0.92148894,0.719279,0.41927722,0.26812318,0.6960374,0.70258445,0.22553599,0.114705,0.5828165,0.0071915886,-0.3088539,-0.10758484,0.37609246,-0.1111121,-0.48187864,-0.5332314,0.06892919,801.02563,797.3993,803.8461,803.0403,717.2161,-0.18780517578125,-0.01800537109375,1.006591796875,2.46734619140625,-0.31402587890625,-1.2261962890625,1,1.0,1.0,1.0,1.0,50.00
2022-11-23 20:22:26.364,0.67733866,0.8901901,0.49768475,0.92148894,0.719279,0.41927722,0.26812318,0.6960374,0.70258445,0.22553599,0.114705,0.5828165,0.0071915886,-0.3088539,-0.10758484,0.37609246,-0.1111121,-0.48187864,-0.5332314,0.06892919,822.381,799.81683,804.2491,814.3223,883.6264,-0.18780517578125,-0.01800537109375,1.006591796875,2.46734619140625,-0.31402587890625,-1.2261962890625,1,1.0,1.0,1.0,1.0,50.00
2022-11-23 20:22:26.365,0.67733866,0.8901901,0.49768475,0.92148894,0.719279,0.41927722,0.26812318,0.6960374,0.70258445,0.22553599,0.114705,0.5828165,0.0071915886,-0.3088539,-0.10758484,0.37609246,-0.1111121,-0.48187864,-0.5332314,0.06892919,788.93774,796.99634,803.44324,790.9524,812.3077,-0.18780517578125,-0.01800537109375,1.006591796875,2.46734619140625,-0.31402587890625,-1.2261962890625,1,1.0,1.0,1.0,1.0,50.00
2022-11-23 20:22:26.365,0.67733866,0.8901901,0.49768475,0.92148894,0.719279,0.41927722,0.26812318,0.6960374,0.70258445,0.22553599,0.114705,0.5828165,0.0071915886,-0.3088539,-0.10758484,0.37609246,-0.1111121,-0.48187864,-0.5332314,0.06892919,772.8205,800.2198,807.8755,776.8498,653.5531,-0.18780517578125,-0.01800537109375,1.006591796875,2.46734619140625,-0.31402587890625,-1.2261962890625,1,1.0,1.0,1.0,1.0,50.00
2022-11-23 20:22:26.365,0.67733866,0.8901901,0.49768475,0.92148894,0.719279,0.41927722,0.26812318,0.6960374,0.70258445,0.22553599,0.114705,0.5828165,0.0071915886,-0.3088539,-0.10758484,0.37609246,-0.1111121,-0.48187864,-0.5332314,0.06892919,809.0842,804.2491,809.4872,805.4579,761.9414,-0.18780517578125,-0.01800537109375,1.006591796875,2.46734619140625,-0.31402587890625,-1.2261962890625,1,1.0,1.0,1.0,1.0,50.00
2022-11-23 20:22:26.365,0.67733866,0.8901901,0.49768475,0.92148894,0.719279,0.41927722,0.26812318,0.6960374,0.70258445,0.22553599,0.114705,0.5828165,0.0071915886,-0.3088539,-0.10758484,0.37609246,-0.1111121,-0.48187864,-0.5332314,0.06892919,832.4542,804.2491,807.47253,828.022,1071.7949,-0.18780517578125,-0.01800537109375,1.006591796875,2.46734619140625,-0.31402587890625,-1.2261962890625,1,1.0,1.0,1.0,1.0,50.00
2022-11-23 20:22:26.366,0.67733866,0.8901901,0.49768475,0.92148894,0.719279,0.41927722,0.26812318,0.6960374,0.70258445,0.22553599,0.114705,0.5828165,0.0071915886,-0.3088539,-0.10758484,0.37609246,-0.1111121,-0.48187864,-0.5332314,0.06892919,802.6374,803.44324,803.8461,805.05493,1006.52014,-0.18780517578125,-0.01800537109375,1.006591796875,2.46734619140625,-0.31402587890625,-1.2261962890625,1,1.0,1.0,1.0,1.0,50.00
2022-11-23 20:22:26.366,0.67733866,0.8901901,0.49768475,0.92148894,0.719279,0.41927722,0.26812318,0.6960374,0.70258445,0.22553599,0.114705,0.5828165,0.0071915886,-0.3088539,-0.10758484,0.37609246,-0.1111121,-0.48187864,-0.5332314,0.06892919,774.0293,801.02563,804.2491,780.4762,717.2161,-0.18780517578125,-0.01800537109375,1.006591796875,2.46734619140625,-0.31402587890625,-1.2261962890625,1,1.0,1.0,1.0,1.0,50.00
2022-11-23 20:22:26.366,0.67733866,0.8901901,0.49768475,0.92148894,0.719279,0.41927722,0.26812318,0.6960374,0.70258445,0.22553599,0.114705,0.5828165,0.0071915886,-0.3088539,-0.10758484,0.37609246,-0.1111121,-0.48187864,-0.5332314,0.06892919,791.3553,796.1905,801.4286,796.5934,765.56775,-0.18780517578125,-0.01800537109375,1.006591796875,2.46734619140625,-0.31402587890625,-1.2261962890625,1,1.0,1.0,1.0,1.0,50.00
2022-11-23 20:22:26.366,0.67733866,0.8901901,0.49768475,0.92148894,0.719279,0.41927722,0.26812318,0.6960374,0.70258445,0.22553599,0.114705,0.5828165,0.0071915886,-0.3088539,-0.10758484,0.37609246,-0.1111121,-0.48187864,-0.5332314,0.06892919,821.978,794.57874,799.41394,819.9634,916.26373,-0.18780517578125,-0.01800537109375,1.006591796875,2.46734619140625,-0.31402587890625,-1.2261962890625,1,1.0,1.0,1.0,1.0,50.00
2022-11-23 20:22:26.367,0.67733866,0.8901901,0.49768475,0.92148894,0.719279,0.41927722,0.26812318,0.6960374,0.70258445,0.22553599,0.114705,0.5828165,0.0071915886,-0.3088539,-0.10758484,0.37609246,-0.1111121,-0.48187864,-0.5332314,0.06892919,811.50183,798.20514,805.05493,812.3077,851.79486,-0.18780517578125,-0.01800537109375,1.006591796875,2.46734619140625,-0.31402587890625,-1.2261962890625,1,1.0,1.0,1.0,1.0,50.00
2022-11-23 20:22:26.414,0.67733866,0.8901901,0.49768475,0.92148894,0.719279,0.41927722,0.26812318,0.6960374,0.70258445,0.22553599,0.114705,0.5828165,0.0071915886,-0.3088539,-0.10758484,0.37609246,-0.1111121,-0.48187864,-0.5332314,0.06892919,780.4762,798.20514,801.8315,790.9524,637.03296,-0.19537353515625,-0.0269775390625,0.9969482421875,1.1663818359375,-1.293487548828125,-0.7177734375,1,1.0,1.0,1.0,1.0,50.00
2022-11-23 20:22:26.415,0.67733866,0.8901901,0.49768475,0.92148894,0.719279,0.41927722,0.26812318,0.6960374,0.70258445,0.22553599,0.114705,0.5828165,0.0071915886,-0.3088539,-0.10758484,0.37609246,-0.1111121,-0.48187864,-0.5332314,0.06892919,788.93774,799.41394,802.6374,794.17584,626.1539,-0.19537353515625,-0.0269775390625,0.9969482421875,1.1663818359375,-1.293487548828125,-0.7177734375,1,1.0,1.0,1.0,1.0,50.00
2022-11-23 20:22:26.415,0.67733866,0.8901901,0.49768475,0.92148894,0.719279,0.41927722,0.26812318,0.6960374,0.70258445,0.22553599,0.114705,0.5828165,0.0071915886,-0.3088539,-0.10758484,0.37609246,-0.1111121,-0.48187864,-0.5332314,0.06892919,827.619,802.6374,808.2784,824.7985,778.86444,-0.19537353515625,-0.0269775390625,0.9969482421875,1.1663818359375,-1.293487548828125,-0.7177734375,1,1.0,1.0,1.0,1.0,50.00
2022-11-23 20:22:26.415,0.67733866,0.8901901,0.49768475,0.92148894,0.719279,0.41927722,0.26812318,0.6960374,0.70258445,0.22553599,0.114705,0.5828165,0.0071915886,-0.3088539,-0.10758484,0.37609246,-0.1111121,-0.48187864,-0.5332314,0.06892919,830.84247,801.02563,808.2784,824.7985,826.0073,-0.19537353515625,-0.0269775390625,0.9969482421875,1.1663818359375,-1.293487548828125,-0.7177734375,1,1.0,1.0,1.0,1.0,50.00
2022-11-23 20:22:26.416,0.67733866,0.8901901,0.49768475,0.92148894,0.719279,0.41927722,0.26812318,0.6960374,0.70258445,0.22553599,0.114705,0.5828165,0.0071915886,-0.3088539,-0.10758484,0.37609246,-0.1111121,-0.48187864,-0.5332314,0.06892919,793.7729,803.44324,810.696,795.38464,662.8205,-0.19537353515625,-0.0269775390625,0.9969482421875,1.1663818359375,-1.293487548828125,-0.7177734375,1,1.0,1.0,1.0,1.0,50.00
2022-11-23 20:22:26.416,0.67733866,0.8901901,0.49768475,0.92148894,0.719279,0.41927722,0.26812318,0.6960374,0.70258445,0.22553599,0.114705,0.5828165,0.0071915886,-0.3088539,-0.10758484,0.37609246,-0.1111121,-0.48187864,-0.5332314,0.06892919,776.8498,803.44324,809.0842,787.72894,641.4652,-0.19537353515625,-0.0269775390625,0.9969482421875,1.1663818359375,-1.293487548828125,-0.7177734375,1,1.0,1.0,1.0,1.0,50.00
2022-11-23 20:22:26.416,0.67733866,0.8901901,0.49768475,0.92148894,0.719279,0.41927722,0.26812318,0.6960374,0.70258445,0.22553599,0.114705,0.5828165,0.0071915886,-0.3088539,-0.10758484,0.37609246,-0.1111121,-0.48187864,-0.5332314,0.06892919,811.9048,797.3993,803.8461,819.15753,1054.8718,-0.19537353515625,-0.0269775390625,0.9969482421875,1.1663818359375,-1.293487548828125,-0.7177734375,1,1.0,1.0,1.0,1.0,50.00
2022-11-23 20:22:26.416,0.67476267,0.9199883,0.52397263,0.931569,0.72493315,0.432439,0.25776437,0.6784469,0.66445076,0.21056959,0.10975022,0.5457822,0.010426974,-0.31056166,-0.11126139,0.3910549,-0.122297555,-0.5001572,-0.54397994,0.09434326,831.6484,800.6227,805.4579,830.4396,1171.7216,-0.19537353515625,-0.0269775390625,0.9969482421875,1.1663818359375,-1.293487548828125,-0.7177734375,1,1.0,1.0,1.0,1.0,50.00
2022-11-23 20:22:26.418,0.67476267,0.9199883,0.52397263,0.931569,0.72493315,0.432439,0.25776437,0.6784469,0.66445076,0.21056959,0.10975022,0.5457822,0.010426974,-0.31056166,-0.11126139,0.3910549,-0.122297555,-0.5001572,-0.54397994,0.09434326,792.5641,805.05493,806.26373,798.60803,783.2967,-0.19537353515625,-0.0269775390625,0.9969482421875,1.1663818359375,-1.293487548828125,-0.7177734375,1,1.0,1.0,1.0,1.0,50.00
2022-11-23 20:22:26.418,0.67476267,0.9199883,0.52397263,0.931569,0.72493315,0.432439,0.25776437,0.6784469,0.66445076,0.21056959,0.10975022,0.5457822,0.010426974,-0.31056166,-0.11126139,0.3910549,-0.122297555,-0.5001572,-0.54397994,0.09434326,767.5824,800.2198,810.696,783.69965,658.7912,-0.19537353515625,-0.0269775390625,0.9969482421875,1.1663818359375,-1.293487548828125,-0.7177734375,1,1.0,1.0,1.0,1.0,50.00
2022-11-23 20:22:26.418,0.67476267,0.9199883,0.52397263,0.931569,0.72493315,0.432439,0.25776437,0.6784469,0.66445076,0.21056959,0.10975022,0.5457822,0.010426974,-0.31056166,-0.11126139,0.3910549,-0.122297555,-0.5001572,-0.54397994,0.09434326,797.8022,799.011,808.2784,804.2491,844.5421,-0.19537353515625,-0.0269775390625,0.9969482421875,1.1663818359375,-1.293487548828125,-0.7177734375,1,1.0,1.0,1.0,1.0,50.00
2022-11-23 20:22:26.418,0.67476267,0.9199883,0.52397263,0.931569,0.72493315,0.432439,0.25776437,0.6784469,0.66445076,0.21056959,0.10975022,0.5457822,0.010426974,-0.31056166,-0.11126139,0.3910549,-0.122297555,-0.5001572,-0.54397994,0.09434326,828.022,802.23444,805.4579,826.0073,983.5531,-0.19537353515625,-0.0269775390625,0.9969482421875,1.1663818359375,-1.293487548828125,-0.7177734375,1,1.0,1.0,1.0,1.0,50.00
2022-11-23 20:22:26.464,0.67476267,0.9199883,0.52397263,0.931569,0.72493315,0.432439,0.25776437,0.6784469,0.66445076,0.21056959,0.10975022,0.5457822,0.010426974,-0.31056166,-0.11126139,0.3910549,-0.122297555,-0.5001572,-0.54397994,0.09434326,800.6227,801.02563,809.4872,808.68134,845.34796,-0.19189453125,-0.0302734375,0.99945068359375,2.340240478515625,-2.22808837890625,-2.130889892578125,1,1.0,1.0,1.0,1.0,50.00
2022-11-23 20:22:26.464,0.67476267,0.9199883,0.52397263,0.931569,0.72493315,0.432439,0.25776437,0.6784469,0.66445076,0.21056959,0.10975022,0.5457822,0.010426974,-0.31056166,-0.11126139,0.3910549,-0.122297555,-0.5001572,-0.54397994,0.09434326,763.5531,798.20514,807.47253,780.4762,659.19415,-0.19189453125,-0.0302734375,0.99945068359375,2.340240478515625,-2.22808837890625,-2.130889892578125,1,1.0,1.0,1.0,1.0,50.00
2022-11-23 20:22:26.464,0.67476267,0.9199883,0.52397263,0.931569,0.72493315,0.432439,0.25776437,0.6784469,0.66445076,0.21056959,0.10975022,0.5457822,0.010426974,-0.31056166,-0.11126139,0.3910549,-0.122297555,-0.5001572,-0.54397994,0.09434326,787.72894,802.23444,805.8608,797.8022,729.707,-0.19189453125,-0.0302734375,0.99945068359375,2.340240478515625,-2.22808837890625,-2.130889892578125,1,1.0,1.0,1.0,1.0,50.00
2022-11-23 20:22:26.465,0.67476267,0.9199883,0.52397263,0.931569,0.72493315,0.432439,0.25776437,0.6784469,0.66445076,0.21056959,0.10975022,0.5457822,0.010426974,-0.31056166,-0.11126139,0.3910549,-0.122297555,-0.5001572,-0.54397994,0.09434326,828.4249,804.2491,805.05493,832.0513,835.6777,-0.19189453125,-0.0302734375,0.99945068359375,2.340240478515625,-2.22808837890625,-2.130889892578125,1,1.0,1.0,1.0,1.0,50.00
2022-11-23 20:22:26.465,0.67476267,0.9199883,0.52397263,0.931569,0.72493315,0.432439,0.25776437,0.6784469,0.66445076,0.21056959,0.10975022,0.5457822,0.010426974,-0.31056166,-0.11126139,0.3910549,-0.122297555,-0.5001572,-0.54397994,0.09434326,813.1135,804.65204,803.44324,816.7399,770.40295,-0.19189453125,-0.0302734375,0.99945068359375,2.340240478515625,-2.22808837890625,-2.130889892578125,1,1.0,1.0,1.0,1.0,50.00
2022-11-23 20:22:26.465,0.67476267,0.9199883,0.52397263,0.931569,0.72493315,0.432439,0.25776437,0.6784469,0.66445076,0.21056959,0.10975022,0.5457822,0.010426974,-0.31056166,-0.11126139,0.3910549,-0.122297555,-0.5001572,-0.54397994,0.09434326,770.0,807.0696,801.4286,787.326,769.19415,-0.19189453125,-0.0302734375,0.99945068359375,2.340240478515625,-2.22808837890625,-2.130889892578125,1,1.0,1.0,1.0,1.0,50.00
2022-11-23 20:22:26.466,0.67476267,0.9199883,0.52397263,0.931569,0.72493315,0.432439,0.25776437,0.6784469,0.66445076,0.21056959,0.10975022,0.5457822,0.010426974,-0.31056166,-0.11126139,0.3910549,-0.122297555,-0.5001572,-0.54397994,0.09434326,784.10254,808.68134,801.4286,801.4286,833.2601,-0.19189453125,-0.0302734375,0.99945068359375,2.340240478515625,-2.22808837890625,-2.130889892578125,1,1.0,1.0,1.0,1.0,50.00
2022-11-23 20:22:26.466,0.67476267,0.9199883,0.52397263,0.931569,0.72493315,0.432439,0.25776437,0.6784469,0.66445076,0.21056959,0.10975022,0.5457822,0.010426974,-0.31056166,-0.11126139,0.3910549,-0.122297555,-0.5001572,-0.54397994,0.09434326,828.022,805.4579,806.26373,831.2454,802.23444,-0.19189453125,-0.0302734375,0.99945068359375,2.340240478515625,-2.22808837890625,-2.130889892578125,1,1.0,1.0,1.0,1.0,50.00
2022-11-23 20:22:26.466,0.67476267,0.9199883,0.52397263,0.931569,0.72493315,0.432439,0.25776437,0.6784469,0.66445076,0.21056959,0.10975022,0.5457822,0.010426974,-0.31056166,-0.11126139,0.3910549,-0.122297555,-0.5001572,-0.54397994,0.09434326,823.5897,803.0403,807.8755,827.619,750.2564,-0.19189453125,-0.0302734375,0.99945068359375,2.340240478515625,-2.22808837890625,-2.130889892578125,1,1.0,1.0,1.0,1.0,50.00
