TimeStamp,Delta_TP9,Delta_AF7,Delta_AF8,Delta_TP10,Theta_TP9,Theta_AF7,Theta_AF8,Theta_TP10,Alpha_TP9,Alpha_AF7,Alpha_AF8,Alpha_TP10,Beta_TP9,Beta_AF7,Beta_AF8,Beta_TP10,Gamma_TP9,Gamma_AF7,Gamma_AF8,Gamma_TP10,RAW_TP9,RAW_AF7,RAW_AF8,RAW_TP10,AUX_RIGHT,Accelerometer_X,Accelerometer_Y,Accelerometer_Z,Gyro_X,Gyro_Y,Gyro_Z,HeadBandOn,HSI_TP9,HSI_AF7,HSI_AF8,HSI_TP10,Battery,Elements
2022-11-23 20:23:00.288,0.436486,-0.27129266,-0.44158784,0.7460385,0.37686372,-0.049937516,-0.22253914,0.4955325,0.41040742,0.31466955,0.029225135,0.7452881,0.09621553,-0.21547636,-0.015487172,0.35163382,-0.216099,-0.76027316,-0.44163167,0.0034813497,803.44324,806.26373,806.6667,813.1135,713.9927,-0.188232421875,-0.028076171875,0.99896240234375,3.686065673828125,-0.418701171875,-0.725250244140625,1,1.0,1.0,1.0,1.0,50.00
2022-11-23 20:23:00.289,0.4521421,-0.2776789,-0.43812305,0.7254069,0.39306855,-0.039799187,-0.20590274,0.5318791,0.40931004,0.31617603,0.031386755,0.82026523,0.090656035,-0.22955593,3.533974E-4,0.3569021,-0.23817216,-0.7907795,-0.4357553,0.016251402,826.8132,804.65204,804.65204,822.7839,839.304,-0.188232421875,-0.028076171875,0.99896240234375,3.686065673828125,-0.418701171875,-0.725250244140625,1,1.0,1.0,1.0,1.0,50.00
2022-11-23 20:23:00.290,0.4521421,-0.2776789,-0.43812305,0.7254069,0.39306855,-0.039799187,-0.20590274,0.5318791,0.40931004,0.31617603,0.031386755,0.82026523,0.090656035,-0.22955593,3.533974E-4,0.3569021,-0.23817216,-0.7907795,-0.4357553,0.016251402,793.36993,807.47253,807.47253,794.57874,765.16486,-0.188232421875,-0.028076171875,0.99896240234375,3.686065673828125,-0.418701171875,-0.725250244140625,1,1.0,1.0,1.0,1.0,50.00
2022-11-23 20:23:00.291,0.4521421,-0.2776789,-0.43812305,0.7254069,0.39306855,-0.039799187,-0.20590274,0.5318791,0.40931004,0.31617603,0.031386755,0.82026523,0.090656035,-0.22955593,3.533974E-4,0.3569021,-0.23817216,-0.7907795,-0.4357553,0.016251402,765.16486,807.47253,805.8608,772.8205,588.2784,-0.188232421875,-0.028076171875,0.99896240234375,3.686065673828125,-0.418701171875,-0.725250244140625,1,1.0,1.0,1.0,1.0,50.00
2022-11-23 20:23:00.291,0.4521421,-0.2776789,-0.43812305,0.7254069,0.39306855,-0.039799187,-0.20590274,0.5318791,0.40931004,0.31617603,0.031386755,0.82026523,0.090656035,-0.22955593,3.533974E-4,0.3569021,-0.23817216,-0.7907795,-0.4357553,0.016251402,792.5641,804.2491,808.2784,790.14655,622.9304,-0.188232421875,-0.028076171875,0.99896240234375,3.686065673828125,-0.418701171875,-0.725250244140625,1,1.0,1.0,1.0,1.0,50.00
2022-11-23 20:23:00.291,0.4521421,-0.2776789,-0.43812305,0.7254069,0.39306855,-0.039799187,-0.20590274,0.5318791,0.40931004,0.31617603,0.031386755,0.82026523,0.090656035,-0.22955593,3.533974E-4,0.3569021,-0.23817216,-0.7907795,-0.4357553,0.016251402,825.2015,802.6374,809.0842,815.9341,856.2271,-0.188232421875,-0.028076171875,0.99896240234375,3.686065673828125,-0.418701171875,-0.725250244140625,1,1.0,1.0,1.0,1.0,50.00
2022-11-23 20:23:00.291,0.4521421,-0.2776789,-0.43812305,0.7254069,0.39306855,-0.039799187,-0.20590274,0.5318791,0.40931004,0.31617603,0.031386755,0.82026523,0.090656035,-0.22955593,3.533974E-4,0.3569021,-0.23817216,-0.7907795,-0.4357553,0.016251402,801.8315,803.0403,803.8461,798.60803,1077.8389,-0.188232421875,-0.028076171875,0.99896240234375,3.686065673828125,-0.418701171875,-0.725250244140625,1,1.0,1.0,1.0,1.0,50.00
2022-11-23 20:23:00.292,0.4521421,-0.2776789,-0.43812305,0.7254069,0.39306855,-0.039799187,-0.20590274,0.5318791,0.40931004,0.31617603,0.031386755,0.82026523,0.090656035,-0.22955593,3.533974E-4,0.3569021,-0.23817216,-0.7907795,-0.4357553,0.016251402,767.5824,805.05493,803.44324,772.8205,891.28204,-0.188232421875,-0.028076171875,0.99896240234375,3.686065673828125,-0.418701171875,-0.725250244140625,1,1.0,1.0,1.0,1.0,50.00
2022-11-23 20:23:00.292,0.4521421,-0.2776789,-0.43812305,0.7254069,0.39306855,-0.039799187,-0.20590274,0.5318791,0.40931004,0.31617603,0.031386755,0.82026523,0.090656035,-0.22955593,3.533974E-4,0.3569021,-0.23817216,-0.7907795,-0.4357553,0.016251402,784.5055,807.8755,807.0696,785.7143,602.381,-0.188232421875,-0.028076171875,0.99896240234375,3.686065673828125,-0.418701171875,-0.725250244140625,1,1.0,1.0,1.0,1.0,50.00
2022-11-23 20:23:00.292,0.4521421,-0.2776789,-0.43812305,0.7254069,0.39306855,-0.039799187,-0.20590274,0.5318791,0.40931004,0.31617603,0.031386755,0.82026523,0.090656035,-0.22955593,3.533974E-4,0.3569021,-0.23817216,-0.7907795,-0.4357553,0.016251402,818.7546,807.8755,809.0842,813.5165,832.4542,-0.188232421875,-0.028076171875,0.99896240234375,3.686065673828125,-0.418701171875,-0.725250244140625,1,1.0,1.0,1.0,1.0,50.00
2022-11-23 20:23:00.292,0.4521421,-0.2776789,-0.43812305,0.7254069,0.39306855,-0.039799187,-0.20590274,0.5318791,0.40931004,0.31617603,0.031386755,0.82026523,0.090656035,-0.22955593,3.533974E-4,0.3569021,-0.23817216,-0.7907795,-0.4357553,0.016251402,815.12823,803.44324,803.8461,805.8608,983.5531,-0.188232421875,-0.028076171875,0.99896240234375,3.686065673828125,-0.418701171875,-0.725250244140625,1,1.0,1.0,1.0,1.0,50.00
2022-11-23 20:23:00.293,0.4521421,-0.2776789,-0.43812305,0.7254069,0.39306855,-0.039799187,-0.20590274,0.5318791,0.40931004,0.31617603,0.031386755,0.82026523,0.090656035,-0.22955593,3.533974E-4,0.3569021,-0.23817216,-0.7907795,-0.4357553,0.016251402,782.49084,802.6374,804.2491,778.0586,776.8498,-0.188232421875,-0.028076171875,0.99896240234375,3.686065673828125,-0.418701171875,-0.725250244140625,1,1.0,1.0,1.0,1.0,50.00
2022-11-23 20:23:00.322,0.4521421,-0.2776789,-0.43812305,0.7254069,0.39306855,-0.039799187,-0.20590274,0.5318791,0.40931004,0.31617603,0.031386755,0.82026523,0.090656035,-0.22955593,3.533974E-4,0.3569021,-0.23817216,-0.7907795,-0.4357553,0.016251402,779.2674,805.8608,806.26373,778.46155,677.326,-0.1873779296875,-0.02593994140625,1.00677490234375,3.087921142578125,-0.58319091796875,-0.55328369140625,1,1.0,1.0,1.0,1.0,50.00
2022-11-23 20:23:00.323,0.4521421,-0.2776789,-0.43812305,0.7254069,0.39306855,-0.039799187,-0.20590274,0.5318791,0.40931004,0.31617603,0.031386755,0.82026523,0.090656035,-0.22955593,3.533974E-4,0.3569021,-0.23817216,-0.7907795,-0.4357553,0.016251402,819.15753,806.6667,804.65204,805.8608,801.4286,-0.1873779296875,-0.02593994140625,1.00677490234375,3.087921142578125,-0.58319091796875,-0.55328369140625,1,1.0,1.0,1.0,1.0,50.00
2022-11-23 20:23:00.323,0.4521421,-0.2776789,-0.43812305,0.7254069,0.39306855,-0.039799187,-0.20590274,0.5318791,0.40931004,0.31617603,0.031386755,0.82026523,0.090656035,-0.22955593,3.533974E-4,0.3569021,-0.23817216,-0.7907795,-0.4357553,0.016251402,836.4835,807.47253,810.696,822.7839,906.1905,-0.1873779296875,-0.02593994140625,1.00677490234375,3.087921142578125,-0.58319091796875,-0.55328369140625,1,1.0,1.0,1.0,1.0,50.00
2022-11-23 20:23:00.323,0.4521421,-0.2776789,-0.43812305,0.7254069,0.39306855,-0.039799187,-0.20590274,0.5318791,0.40931004,0.31617603,0.031386755,0.82026523,0.090656035,-0.22955593,3.533974E-4,0.3569021,-0.23817216,-0.7907795,-0.4357553,0.016251402,802.23444,807.8755,811.9048,802.6374,729.707,-0.1873779296875,-0.02593994140625,1.00677490234375,3.087921142578125,-0.58319091796875,-0.55328369140625,1,1.0,1.0,1.0,1.0,50.00
2022-11-23 20:23:00.324,0.4521421,-0.2776789,-0.43812305,0.7254069,0.39306855,-0.039799187,-0.20590274,0.5318791,0.40931004,0.31617603,0.031386755,0.82026523,0.090656035,-0.22955593,3.533974E-4,0.3569021,-0.23817216,-0.7907795,-0.4357553,0.016251402,781.685,807.47253,804.65204,791.3553,608.4249,-0.1873779296875,-0.02593994140625,1.00677490234375,3.087921142578125,-0.58319091796875,-0.55328369140625,1,1.0,1.0,1.0,1.0,50.00
2022-11-23 20:23:00.324,0.4521421,-0.2776789,-0.43812305,0.7254069,0.39306855,-0.039799187,-0.20590274,0.5318791,0.40931004,0.31617603,0.031386755,0.82026523,0.090656035,-0.22955593,3.533974E-4,0.3569021,-0.23817216,-0.7907795,-0.4357553,0.016251402,814.7253,809.0842,803.8461,816.7399,903.7729,-0.1873779296875,-0.02593994140625,1.00677490234375,3.087921142578125,-0.58319091796875,-0.55328369140625,1,1.0,1.0,1.0,1.0,50.00
2022-11-23 20:23:00.324,0.4521421,-0.2776789,-0.43812305,0.7254069,0.39306855,-0.039799187,-0.20590274,0.5318791,0.40931004,0.31617603,0.031386755,0.82026523,0.090656035,-0.22955593,3.533974E-4,0.3569021,-0.23817216,-0.7907795,-0.4357553,0.016251402,842.52747,810.293,806.26373,834.4689,1019.011,-0.1873779296875,-0.02593994140625,1.00677490234375,3.087921142578125,-0.58319091796875,-0.55328369140625,1,1.0,1.0,1.0,1.0,50.00
2022-11-23 20:23:00.324,0.4521421,-0.2776789,-0.43812305,0.7254069,0.39306855,-0.039799187,-0.20590274,0.5318791,0.40931004,0.31617603,0.031386755,0.82026523,0.090656035,-0.22955593,3.533974E-4,0.3569021,-0.23817216,-0.7907795,-0.4357553,0.016251402,815.5311,807.47253,805.8608,809.0842,774.0293,-0.1873779296875,-0.02593994140625,1.00677490234375,3.087921142578125,-0.58319091796875,-0.55328369140625,1,1.0,1.0,1.0,1.0,50.00
2022-11-23 20:23:00.324,0.4521421,-0.2776789,-0.43812305,0.7254069,0.39306855,-0.039799187,-0.20590274,0.5318791,0.40931004,0.31617603,0.031386755,0.82026523,0.090656035,-0.22955593,3.533974E-4,0.3569021,-0.23817216,-0.7907795,-0.4357553,0.016251402,785.31134,809.4872,808.68134,785.31134,593.1135,-0.1873779296875,-0.02593994140625,1.00677490234375,3.087921142578125,-0.58319091796875,-0.55328369140625,1,1.0,1.0,1.0,1.0,50.00
2022-11-23 20:23:00.325,0.4521421,-0.2776789,-0.43812305,0.7254069,0.39306855,-0.039799187,-0.20590274,0.5318791,0.40931004,0.31617603,0.031386755,0.82026523,0.090656035,-0.22955593,3.533974E-4,0.3569021,-0.23817216,-0.7907795,-0.4357553,0.016251402,803.8461,807.8755,803.8461,806.26373,740.989,-0.1873779296875,-0.02593994140625,1.00677490234375,3.087921142578125,-0.58319091796875,-0.55328369140625,1,1.0,1.0,1.0,1.0,50.00
2022-11-23 20:23:00.325,0.4521421,-0.2776789,-0.43812305,0.7254069,0.39306855,-0.039799187,-0.20590274,0.5318791,0.40931004,0.31617603,0.031386755,0.82026523,0.090656035,-0.22955593,3.533974E-4,0.3569021,-0.23817216,-0.7907795,-0.4357553,0.016251402,834.87177,805.8608,799.011,829.6337,957.3626,-0.1873779296875,-0.02593994140625,1.00677490234375,3.087921142578125,-0.58319091796875,-0.55328369140625,1,1.0,1.0,1.0,1.0,50.00
2022-11-23 20:23:00.325,0.4521421,-0.2776789,-0.43812305,0.7254069,0.39306855,-0.039799187,-0.20590274,0.5318791,0.40931004,0.31617603,0.031386755,0.82026523,0.090656035,-0.22955593,3.533974E-4,0.3569021,-0.23817216,-0.7907795,-0.4357553,0.016251402,821.1722,805.8608,799.41394,814.7253,794.9817,-0.1873779296875,-0.02593994140625,1.00677490234375,3.087921142578125,-0.58319091796875,-0.55328369140625,1,1.0,1.0,1.0,1.0,50.00
2022-11-23 20:23:00.348,0.4521421,-0.2776789,-0.43812305,0.7254069,0.39306855,-0.039799187,-0.20590274,0.5318791,0.40931004,0.31617603,0.031386755,0.82026523,0.090656035,-0.22955593,3.533974E-4,0.3569021,-0.23817216,-0.7907795,-0.4357553,0.016251402,776.04395,804.65204,797.3993,788.93774,645.89746,-0.19635009765625,-0.0244140625,1.00030517578125,3.4991455078125,-0.5084228515625,-0.478515625,1,1.0,1.0,1.0,1.0,50.00
2022-11-23 20:23:00.348,0.4521421,-0.2776789,-0.43812305,0.7254069,0.39306855,-0.039799187,-0.20590274,0.5318791,0.40931004,0.31617603,0.031386755,0.82026523,0.090656035,-0.22955593,3.533974E-4,0.3569021,-0.23817216,-0.7907795,-0.4357553,0.016251402,774.43225,808.2784,798.60803,796.99634,757.1062,-0.19635009765625,-0.0244140625,1.00030517578125,3.4991455078125,-0.5084228515625,-0.478515625,1,1.0,1.0,1.0,1.0,50.00
2022-11-23 20:23:00.348,0.4521421,-0.2776789,-0.43812305,0.7254069,0.39306855,-0.039799187,-0.20590274,0.5318791,0.40931004,0.31617603,0.031386755,0.82026523,0.090656035,-0.22955593,3.533974E-4,0.3569021,-0.23817216,-0.7907795,-0.4357553,0.016251402,818.7546,807.8755,804.2491,820.3663,884.83514,-0.19635009765625,-0.0244140625,1.00030517578125,3.4991455078125,-0.5084228515625,-0.478515625,1,1.0,1.0,1.0,1.0,50.00
2022-11-23 20:23:00.349,0.46627048,-0.28765005,-0.43378347,0.706016,0.3992219,-0.031431727,-0.19425477,0.56167305,0.41494468,0.31537992,0.036492683,0.8222701,0.08291175,-0.23701231,0.0110548185,0.36073357,-0.24663681,-0.823713,-0.43088418,0.02573044,824.3956,805.05493,802.6374,815.5311,898.1319,-0.19635009765625,-0.0244140625,1.00030517578125,3.4991455078125,-0.5084228515625,-0.478515625,1,1.0,1.0,1.0,1.0,50.00
2022-11-23 20:23:00.350,0.46627048,-0.28765005,-0.43378347,0.706016,0.3992219,-0.031431727,-0.19425477,0.56167305,0.41494468,0.31537992,0.036492683,0.8222701,0.08291175,-0.23701231,0.0110548185,0.36073357,-0.24663681,-0.823713,-0.43088418,0.02573044,780.07324,804.2491,799.41394,786.52014,861.4652,-0.19635009765625,-0.0244140625,1.00030517578125,3.4991455078125,-0.5084228515625,-0.478515625,1,1.0,1.0,1.0,1.0,50.00
2022-11-23 20:23:00.350,0.46627048,-0.28765005,-0.43378347,0.706016,0.3992219,-0.031431727,-0.19425477,0.56167305,0.41494468,0.31537992,0.036492683,0.8222701,0.08291175,-0.23701231,0.0110548185,0.36073357,-0.24663681,-0.823713,-0.43088418,0.02573044,767.1795,804.65204,805.4579,787.72894,769.19415,-0.19635009765625,-0.0244140625,1.00030517578125,3.4991455078125,-0.5084228515625,-0.478515625,1,1.0,1.0,1.0,1.0,50.00
2022-11-23 20:23:00.351,0.46627048,-0.28765005,-0.43378347,0.706016,0.3992219,-0.031431727,-0.19425477,0.56167305,0.41494468,0.31537992,0.036492683,0.8222701,0.08291175,-0.23701231,0.0110548185,0.36073357,-0.24663681,-0.823713,-0.43088418,0.02573044,808.2784,805.05493,809.89014,820.7692,838.0952,-0.19635009765625,-0.0244140625,1.00030517578125,3.4991455078125,-0.5084228515625,-0.478515625,1,1.0,1.0,1.0,1.0,50.00
2022-11-23 20:23:00.351,0.46627048,-0.28765005,-0.43378347,0.706016,0.3992219,-0.031431727,-0.19425477,0.56167305,0.41494468,0.31537992,0.036492683,0.8222701,0.08291175,-0.23701231,0.0110548185,0.36073357,-0.24663681,-0.823713,-0.43088418,0.02573044,825.2015,803.44324,808.2784,821.978,902.5641,-0.19635009765625,-0.0244140625,1.00030517578125,3.4991455078125,-0.5084228515625,-0.478515625,1,1.0,1.0,1.0,1.0,50.00
2022-11-23 20:23:00.351,0.46627048,-0.28765005,-0.43378347,0.706016,0.3992219,-0.031431727,-0.19425477,0.56167305,0.41494468,0.31537992,0.036492683,0.8222701,0.08291175,-0.23701231,0.0110548185,0.36073357,-0.24663681,-0.823713,-0.43088418,0.02573044,790.9524,804.65204,806.6667,796.5934,775.64105,-0.19635009765625,-0.0244140625,1.00030517578125,3.4991455078125,-0.5084228515625,-0.478515625,1,1.0,1.0,1.0,1.0,50.00
2022-11-23 20:23:00.351,0.46627048,-0.28765005,-0.43378347,0.706016,0.3992219,-0.031431727,-0.19425477,0.56167305,0.41494468,0.31537992,0.036492683,0.8222701,0.08291175,-0.23701231,0.0110548185,0.36073357,-0.24663681,-0.823713,-0.43088418,0.02573044,771.6117,807.8755,808.68134,787.72894,807.47253,-0.19635009765625,-0.0244140625,1.00030517578125,3.4991455078125,-0.5084228515625,-0.478515625,1,1.0,1.0,1.0,1.0,50.00
2022-11-23 20:23:00.351,0.46627048,-0.28765005,-0.43378347,0.706016,0.3992219,-0.031431727,-0.19425477,0.56167305,0.41494468,0.31537992,0.036492683,0.8222701,0.08291175,-0.23701231,0.0110548185,0.36073357,-0.24663681,-0.823713,-0.43088418,0.02573044,804.65204,807.8755,808.2784,811.0989,894.10254,-0.19635009765625,-0.0244140625,1.00030517578125,3.4991455078125,-0.5084228515625,-0.478515625,1,1.0,1.0,1.0,1.0,50.00
2022-11-23 20:23:00.352,0.46627048,-0.28765005,-0.43378347,0.706016,0.3992219,-0.031431727,-0.19425477,0.56167305,0.41494468,0.31537992,0.036492683,0.8222701,0.08291175,-0.23701231,0.0110548185,0.36073357,-0.24663681,-0.823713,-0.43088418,0.02573044,834.4689,803.8461,805.05493,832.4542,882.01465,-0.19635009765625,-0.0244140625,1.00030517578125,3.4991455078125,-0.5084228515625,-0.478515625,1,1.0,1.0,1.0,1.0,50.00
2022-11-23 20:23:00.393,0.46627048,-0.28765005,-0.43378347,0.706016,0.3992219,-0.031431727,-0.19425477,0.56167305,0.41494468,0.31537992,0.036492683,0.8222701,0.08291175,-0.23701231,0.0110548185,0.36073357,-0.24663681,-0.823713,-0.43088418,0.02573044,805.8608,801.4286,803.44324,811.0989,851.79486,-0.19635009765625,-0.0244140625,1.00030517578125,3.4991455078125,-0.5084228515625,-0.478515625,1,1.0,1.0,1.0,1.0,50.00
2022-11-23 20:23:00.394,0.46627048,-0.28765005,-0.43378347,0.706016,0.3992219,-0.031431727,-0.19425477,0.56167305,0.41494468,0.31537992,0.036492683,0.8222701,0.08291175,-0.23701231,0.0110548185,0.36073357,-0.24663681,-0.823713,-0.43088418,0.02573044,770.80585,802.6374,808.2784,788.93774,724.87177,-0.19635009765625,-0.0244140625,1.00030517578125,3.4991455078125,-0.5084228515625,-0.478515625,1,1.0,1.0,1.0,1.0,50.00
2022-11-23 20:23:00.394,0.46627048,-0.28765005,-0.43378347,0.706016,0.3992219,-0.031431727,-0.19425477,0.56167305,0.41494468,0.31537992,0.036492683,0.8222701,0.08291175,-0.23701231,0.0110548185,0.36073357,-0.24663681,-0.823713,-0.43088418,0.02573044,792.5641,799.81683,811.0989,807.47253,651.53845,-0.19635009765625,-0.0244140625,1.00030517578125,3.4991455078125,-0.5084228515625,-0.478515625,1,1.0,1.0,1.0,1.0,50.00
2022-11-23 20:23:00.394,0.46627048,-0.28765005,-0.43378347,0.706016,0.3992219,-0.031431727,-0.19425477,0.56167305,0.41494468,0.31537992,0.036492683,0.8222701,0.08291175,-0.23701231,0.0110548185,0.36073357,-0.24663681,-0.823713,-0.43088418,0.02573044,828.8278,798.20514,813.1135,839.304,800.6227,-0.19635009765625,-0.0244140625,1.00030517578125,3.4991455078125,-0.5084228515625,-0.478515625,1,1.0,1.0,1.0,1.0,50.00
2022-11-23 20:23:00.395,0.46627048,-0.28765005,-0.43378347,0.706016,0.3992219,-0.031431727,-0.19425477,0.56167305,0.41494468,0.31537992,0.036492683,0.8222701,0.08291175,-0.23701231,0.0110548185,0.36073357,-0.24663681,-0.823713,-0.43088418,0.02573044,816.7399,798.60803,810.696,827.2161,956.55676,-0.19635009765625,-0.0244140625,1.00030517578125,3.4991455078125,-0.5084228515625,-0.478515625,1,1.0,1.0,1.0,1.0,50.00
2022-11-23 20:23:00.395,0.46627048,-0.28765005,-0.43378347,0.706016,0.3992219,-0.031431727,-0.19425477,0.56167305,0.41494468,0.31537992,0.036492683,0.8222701,0.08291175,-0.23701231,0.0110548185,0.36073357,-0.24663681,-0.823713,-0.43088418,0.02573044,780.4762,795.78754,803.8461,792.5641,828.4249,-0.19635009765625,-0.0244140625,1.00030517578125,3.4991455078125,-0.5084228515625,-0.478515625,1,1.0,1.0,1.0,1.0,50.00
2022-11-23 20:23:00.395,0.46627048,-0.28765005,-0.43378347,0.706016,0.3992219,-0.031431727,-0.19425477,0.56167305,0.41494468,0.31537992,0.036492683,0.8222701,0.08291175,-0.23701231,0.0110548185,0.36073357,-0.24663681,-0.823713,-0.43088418,0.02573044,788.5348,800.2198,807.0696,796.5934,741.79486,-0.19635009765625,-0.0244140625,1.00030517578125,3.4991455078125,-0.5084228515625,-0.478515625,1,1.0,1.0,1.0,1.0,50.00
2022-11-23 20:23:00.395,0.46627048,-0.28765005,-0.43378347,0.706016,0.3992219,-0.031431727,-0.19425477,0.56167305,0.41494468,0.31537992,0.036492683,0.8222701,0.08291175,-0.23701231,0.0110548185,0.36073357,-0.24663681,-0.823713,-0.43088418,0.02573044,830.0366,803.44324,807.47253,820.3663,821.1722,-0.19635009765625,-0.0244140625,1.00030517578125,3.4991455078125,-0.5084228515625,-0.478515625,1,1.0,1.0,1.0,1.0,50.00
2022-11-23 20:23:00.395,0.46627048,-0.28765005,-0.43378347,0.706016,0.3992219,-0.031431727,-0.19425477,0.56167305,0.41494468,0.31537992,0.036492683,0.8222701,0.08291175,-0.23701231,0.0110548185,0.36073357,-0.24663681,-0.823713,-0.43088418,0.02573044,837.6923,802.23444,805.05493,821.1722,983.5531,-0.19635009765625,-0.0244140625,1.00030517578125,3.4991455078125,-0.5084228515625,-0.478515625,1,1.0,1.0,1.0,1.0,50.00
2022-11-23 20:23:00.396,0.46627048,-0.28765005,-0.43378347,0.706016,0.3992219,-0.031431727,-0.19425477,0.56167305,0.41494468,0.31537992,0.036492683,0.8222701,0.08291175,-0.23701231,0.0110548185,0.36073357,-0.24663681,-0.823713,-0.43088418,0.02573044,802.6374,805.05493,809.0842,797.8022,965.42126,-0.19635009765625,-0.0244140625,1.00030517578125,3.4991455078125,-0.5084228515625,-0.478515625,1,1.0,1.0,1.0,1.0,50.00
2022-11-23 20:23:00.396,0.46627048,-0.28765005,-0.43378347,0.706016,0.3992219,-0.031431727,-0.19425477,0.56167305,0.41494468,0.31537992,0.036492683,0.8222701,0.08291175,-0.23701231,0.0110548185,0.36073357,-0.24663681,-0.823713,-0.43088418,0.02573044,788.1319,809.4872,809.4872,790.54944,676.52014,-0.19635009765625,-0.0244140625,1.00030517578125,3.4991455078125,-0.5084228515625,-0.478515625,1,1.0,1.0,1.0,1.0,50.00
2022-11-23 20:23:00.396,0.46627048,-0.28765005,-0.43378347,0.706016,0.3992219,-0.031431727,-0.19425477,0.56167305,0.41494468,0.31537992,0.036492683,0.8222701,0.08291175,-0.23701231,0.0110548185,0.36073357,-0.24663681,-0.823713,-0.43088418,0.02573044,823.9927,810.696,809.89014,821.5751,727.6923,-0.19635009765625,-0.0244140625,1.00030517578125,3.4991455078125,-0.5084228515625,-0.478515625,1,1.0,1.0,1.0,1.0,50.00
2022-11-23 20:23:00.444,0.46627048,-0.28765005,-0.43378347,0.706016,0.3992219,-0.031431727,-0.19425477,0.56167305,0.41494468,0.31537992,0.036492683,0.8222701,0.08291175,-0.23701231,0.0110548185,0.36073357,-0.24663681,-0.823713,-0.43088418,0.02573044,847.3626,808.68134,810.293,833.663,848.97437,-0.18182373046875,-0.0177001953125,1.02239990234375,3.48419189453125,-0.725250244140625,-1.203765869140625,1,1.0,1.0,1.0,1.0,50.00
2022-11-23 20:23:00.444,0.46627048,-0.28765005,-0.43378347,0.706016,0.3992219,-0.031431727,-0.19425477,0.56167305,0.41494468,0.31537992,0.036492683,0.8222701,0.08291175,-0.23701231,0.0110548185,0.36073357,-0.24663681,-0.823713,-0.43088418,0.02573044,803.44324,805.05493,805.05493,807.8755,715.2015,-0.18182373046875,-0.0177001953125,1.02239990234375,3.48419189453125,-0.725250244140625,-1.203765869140625,1,1.0,1.0,1.0,1.0,50.00
2022-11-23 20:23:00.444,0.46627048,-0.28765005,-0.43378347,0.706016,0.3992219,-0.031431727,-0.19425477,0.56167305,0.41494468,0.31537992,0.036492683,0.8222701,0.08291175,-0.23701231,0.0110548185,0.36073357,-0.24663681,-0.823713,-0.43088418,0.02573044,765.56775,805.05493,801.4286,787.72894,562.49084,-0.18182373046875,-0.0177001953125,1.02239990234375,3.48419189453125,-0.725250244140625,-1.203765869140625,1,1.0,1.0,1.0,1.0,50.00
2022-11-23 20:23:00.445,0.46627048,-0.28765005,-0.43378347,0.706016,0.3992219,-0.031431727,-0.19425477,0.56167305,0.41494468,0.31537992,0.036492683,0.8222701,0.08291175,-0.23701231,0.0110548185,0.36073357,-0.24663681,-0.823713,-0.43088418,0.02573044,797.3993,804.65204,800.2198,812.3077,648.71796,-0.18182373046875,-0.0177001953125,1.02239990234375,3.48419189453125,-0.725250244140625,-1.203765869140625,1,1.0,1.0,1.0,1.0,50.00
2022-11-23 20:23:00.445,0.46627048,-0.28765005,-0.43378347,0.706016,0.3992219,-0.031431727,-0.19425477,0.56167305,0.41494468,0.31537992,0.036492683,0.8222701,0.08291175,-0.23701231,0.0110548185,0.36073357,-0.24663681,-0.823713,-0.43088418,0.02573044,833.2601,805.05493,802.23444,838.0952,877.5824,-0.18182373046875,-0.0177001953125,1.02239990234375,3.48419189453125,-0.725250244140625,-1.203765869140625,1,1.0,1.0,1.0,1.0,50.00
2022-11-23 20:23:00.445,0.4808067,-0.3201609,-0.4238838,0.6898278,0.39655945,-0.03319203,-0.19710349,0.5812334,0.41958672,0.3133989,0.053525843,0.82039964,0.0743816,-0.23987481,0.018071001,0.36149603,-0.25100324,-0.85606277,-0.42987737,0.025697727,810.696,806.26373,805.4579,811.50183,886.04395,-0.18182373046875,-0.0177001953125,1.02239990234375,3.48419189453125,-0.725250244140625,-1.203765869140625,1,1.0,1.0,1.0,1.0,50.00
2022-11-23 20:23:00.447,0.4808067,-0.3201609,-0.4238838,0.6898278,0.39655945,-0.03319203,-0.19710349,0.5812334,0.41958672,0.3133989,0.053525843,0.82039964,0.0743816,-0.23987481,0.018071001,0.36149603,-0.25100324,-0.85606277,-0.42987737,0.025697727,779.2674,802.6374,801.4286,781.685,662.4176,-0.18182373046875,-0.0177001953125,1.02239990234375,3.48419189453125,-0.725250244140625,-1.203765869140625,1,1.0,1.0,1.0,1.0,50.00
2022-11-23 20:23:00.447,0.4808067,-0.3201609,-0.4238838,0.6898278,0.39655945,-0.03319203,-0.19710349,0.5812334,0.41958672,0.3133989,0.053525843,0.82039964,0.0743816,-0.23987481,0.018071001,0.36149603,-0.25100324,-0.85606277,-0.42987737,0.025697727,795.78754,801.4286,797.8022,796.1905,694.2491,-0.18182373046875,-0.0177001953125,1.02239990234375,3.48419189453125,-0.725250244140625,-1.203765869140625,1,1.0,1.0,1.0,1.0,50.00
2022-11-23 20:23:00.447,0.4808067,-0.3201609,-0.4238838,0.6898278,0.39655945,-0.03319203,-0.19710349,0.5812334,0.41958672,0.3133989,0.053525843,0.82039964,0.0743816,-0.23987481,0.018071001,0.36149603,-0.25100324,-0.85606277,-0.42987737,0.025697727,828.4249,805.05493,799.41394,828.4249,1089.5238,-0.18182373046875,-0.0177001953125,1.02239990234375,3.48419189453125,-0.725250244140625,-1.203765869140625,1,1.0,1.0,1.0,1.0,50.00
2022-11-23 20:23:00.448,0.4808067,-0.3201609,-0.4238838,0.6898278,0.39655945,-0.03319203,-0.19710349,0.5812334,0.41958672,0.3133989,0.053525843,0.82039964,0.0743816,-0.23987481,0.018071001,0.36149603,-0.25100324,-0.85606277,-0.42987737,0.025697727,825.6044,804.65204,800.6227,819.15753,1100.0,-0.18182373046875,-0.0177001953125,1.02239990234375,3.48419189453125,-0.725250244140625,-1.203765869140625,1,1.0,1.0,1.0,1.0,50.00
2022-11-23 20:23:00.448,0.4808067,-0.3201609,-0.4238838,0.6898278,0.39655945,-0.03319203,-0.19710349,0.5812334,0.41958672,0.3133989,0.053525843,0.82039964,0.0743816,-0.23987481,0.018071001,0.36149603,-0.25100324,-0.85606277,-0.42987737,0.025697727,784.90845,804.65204,800.6227,783.2967,678.93774,-0.18182373046875,-0.0177001953125,1.02239990234375,3.48419189453125,-0.725250244140625,-1.203765869140625,1,1.0,1.0,1.0,1.0,50.00
2022-11-23 20:23:00.448,0.4808067,-0.3201609,-0.4238838,0.6898278,0.39655945,-0.03319203,-0.19710349,0.5812334,0.41958672,0.3133989,0.053525843,0.82039964,0.0743816,-0.23987481,0.018071001,0.36149603,-0.25100324,-0.85606277,-0.42987737,0.025697727,776.4469,806.26373,799.011,781.685,618.49817,-0.18182373046875,-0.0177001953125,1.02239990234375,3.48419189453125,-0.725250244140625,-1.203765869140625,1,1.0,1.0,1.0,1.0,50.00
2022-11-23 20:23:00.493,0.4808067,-0.3201609,-0.4238838,0.6898278,0.39655945,-0.03319203,-0.19710349,0.5812334,0.41958672,0.3133989,0.053525843,0.82039964,0.0743816,-0.23987481,0.018071001,0.36149603,-0.25100324,-0.85606277,-0.42987737,0.025697727,818.7546,807.47253,801.8315,811.0989,816.7399,-0.18939208984375,-0.0103759765625,1.00146484375,3.57391357421875,-2.093505859375,1.428070068359375,1,1.0,1.0,1.0,1.0,50.00
2022-11-23 20:23:00.493,0.4808067,-0.3201609,-0.4238838,0.6898278,0.39655945,-0.03319203,-0.19710349,0.5812334,0.41958672,0.3133989,0.053525843,0.82039964,0.0743816,-0.23987481,0.018071001,0.36149603,-0.25100324,-0.85606277,-0.42987737,0.025697727,831.2454,807.8755,802.23444,811.9048,875.56775,-0.18939208984375,-0.0103759765625,1.00146484375,3.57391357421875,-2.093505859375,1.428070068359375,1,1.0,1.0,1.0,1.0,50.00
2022-11-23 20:23:00.493,0.4808067,-0.3201609,-0.4238838,0.6898278,0.39655945,-0.03319203,-0.19710349,0.5812334,0.41958672,0.3133989,0.053525843,0.82039964,0.0743816,-0.23987481,0.018071001,0.36149603,-0.25100324,-0.85606277,-0.42987737,0.025697727,794.57874,803.0403,804.2491,785.7143,743.8095,-0.18939208984375,-0.0103759765625,1.00146484375,3.57391357421875,-2.093505859375,1.428070068359375,1,1.0,1.0,1.0,1.0,50.00
2022-11-23 20:23:00.494,0.4808067,-0.3201609,-0.4238838,0.6898278,0.39655945,-0.03319203,-0.19710349,0.5812334,0.41958672,0.3133989,0.053525843,0.82039964,0.0743816,-0.23987481,0.018071001,0.36149603,-0.25100324,-0.85606277,-0.42987737,0.025697727,776.8498,804.65204,807.8755,774.83514,647.1062,-0.18939208984375,-0.0103759765625,1.00146484375,3.57391357421875,-2.093505859375,1.428070068359375,1,1.0,1.0,1.0,1.0,50.00
2022-11-23 20:23:00.494,0.4808067,-0.3201609,-0.4238838,0.6898278,0.39655945,-0.03319203,-0.19710349,0.5812334,0.41958672,0.3133989,0.053525843,0.82039964,0.0743816,-0.23987481,0.018071001,0.36149603,-0.25100324,-0.85606277,-0.42987737,0.025697727,807.0696,807.47253,803.0403,796.5934,746.2271,-0.18939208984375,-0.0103759765625,1.00146484375,3.57391357421875,-2.093505859375,1.428070068359375,1,1.0,1.0,1.0,1.0,50.00
2022-11-23 20:23:00.494,0.4808067,-0.3201609,-0.4238838,0.6898278,0.39655945,-0.03319203,-0.19710349,0.5812334,0.41958672,0.3133989,0.053525843,0.82039964,0.0743816,-0.23987481,0.018071001,0.36149603,-0.25100324,-0.85606277,-0.42987737,0.025697727,832.0513,807.0696,800.2198,814.3223,942.8571,-0.18939208984375,-0.0103759765625,1.00146484375,3.57391357421875,-2.093505859375,1.428070068359375,1,1.0,1.0,1.0,1.0,50.00
2022-11-23 20:23:00.494,0.4808067,-0.3201609,-0.4238838,0.6898278,0.39655945,-0.03319203,-0.19710349,0.5812334,0.41958672,0.3133989,0.053525843,0.82039964,0.0743816,-0.23987481,0.018071001,0.36149603,-0.25100324,-0.85606277,-0.42987737,0.025697727,796.1905,811.9048,802.23444,794.57874,902.5641,-0.18939208984375,-0.0103759765625,1.00146484375,3.57391357421875,-2.093505859375,1.428070068359375,1,1.0,1.0,1.0,1.0,50.00
2022-11-23 20:23:00.494,0.4808067,-0.3201609,-0.4238838,0.6898278,0.39655945,-0.03319203,-0.19710349,0.5812334,0.41958672,0.3133989,0.053525843,0.82039964,0.0743816,-0.23987481,0.018071001,0.36149603,-0.25100324,-0.85606277,-0.42987737,0.025697727,761.9414,813.1135,801.8315,782.49084,825.6044,-0.18939208984375,-0.0103759765625,1.00146484375,3.57391357421875,-2.093505859375,1.428070068359375,1,1.0,1.0,1.0,1.0,50.00
2022-11-23 20:23:00.495,0.4808067,-0.3201609,-0.4238838,0.6898278,0.39655945,-0.03319203,-0.19710349,0.5812334,0.41958672,0.3133989,0.053525843,0.82039964,0.0743816,-0.23987481,0.018071001,0.36149603,-0.25100324,-0.85606277,-0.42987737,0.025697727,794.57874,808.2784,801.02563,798.20514,897.326,-0.18939208984375,-0.0103759765625,1.00146484375,3.57391357421875,-2.093505859375,1.428070068359375,1,1.0,1.0,1.0,1.0,50.00
2022-11-23 20:23:00.495,0.4808067,-0.3201609,-0.4238838,0.6898278,0.39655945,-0.03319203,-0.19710349,0.5812334,0.41958672,0.3133989,0.053525843,0.82039964,0.0743816,-0.23987481,0.018071001,0.36149603,-0.25100324,-0.85606277,-0.42987737,0.025697727,828.022,809.89014,800.2198,814.3223,852.6007,-0.18939208984375,-0.0103759765625,1.00146484375,3.57391357421875,-2.093505859375,1.428070068359375,1,1.0,1.0,1.0,1.0,50.00
2022-11-23 20:23:00.495,0.4808067,-0.3201609,-0.4238838,0.6898278,0.39655945,-0.03319203,-0.19710349,0.5812334,0.41958672,0.3133989,0.053525843,0.82039964,0.0743816,-0.23987481,0.018071001,0.36149603,-0.25100324,-0.85606277,-0.42987737,0.025697727,811.50183,815.9341,800.6227,804.65204,760.7326,-0.18939208984375,-0.0103759765625,1.00146484375,3.57391357421875,-2.093505859375,1.428070068359375,1,1.0,1.0,1.0,1.0,50.00
2022-11-23 20:23:00.495,0.4808067,-0.3201609,-0.4238838,0.6898278,0.39655945,-0.03319203,-0.19710349,0.5812334,0.41958672,0.3133989,0.053525843,0.82039964,0.0743816,-0.23987481,0.018071001,0.36149603,-0.25100324,-0.85606277,-0.42987737,0.025697727,784.5055,816.337,802.23444,778.46155,674.10254,-0.18939208984375,-0.0103759765625,1.00146484375,3.57391357421875,-2.093505859375,1.428070068359375,1,1.0,1.0,1.0,1.0,50.00
2022-11-23 20:23:00.544,0.4808067,-0.3201609,-0.4238838,0.6898278,0.39655945,-0.03319203,-0.19710349,0.5812334,0.41958672,0.3133989,0.053525843,0.82039964,0.0743816,-0.23987481,0.018071001,0.36149603,-0.25100324,-0.85606277,-0.42987737,0.025697727,783.2967,809.4872,801.4286,781.685,732.1245,-0.21307373046875,-0.01910400390625,0.99041748046875,2.25799560546875,1.069183349609375,-0.082244873046875,1,1.0,1.0,1.0,1.0,50.00
2022-11-23 20:23:00.544,0.4808067,-0.3201609,-0.4238838,0.6898278,0.39655945,-0.03319203,-0.19710349,0.5812334,0.41958672,0.3133989,0.053525843,0.82039964,0.0743816,-0.23987481,0.018071001,0.36149603,-0.25100324,-0.85606277,-0.42987737,0.025697727,821.5751,807.47253,799.81683,809.0842,815.9341,-0.21307373046875,-0.01910400390625,0.99041748046875,2.25799560546875,1.069183349609375,-0.082244873046875,1,1.0,1.0,1.0,1.0,50.00
2022-11-23 20:23:00.545,0.4808067,-0.3201609,-0.4238838,0.6898278,0.39655945,-0.03319203,-0.19710349,0.5812334,0.41958672,0.3133989,0.053525843,0.82039964,0.0743816,-0.23987481,0.018071001,0.36149603,-0.25100324,-0.85606277,-0.42987737,0.025697727,821.5751,810.696,797.3993,804.65204,829.6337,-0.21307373046875,-0.01910400390625,0.99041748046875,2.25799560546875,1.069183349609375,-0.082244873046875,1,1.0,1.0,1.0,1.0,50.00
2022-11-23 20:23:00.545,0.4808067,-0.3201609,-0.4238838,0.6898278,0.39655945,-0.03319203,-0.19710349,0.5812334,0.41958672,0.3133989,0.053525843,0.82039964,0.0743816,-0.23987481,0.018071001,0.36149603,-0.25100324,-0.85606277,-0.42987737,0.025697727,778.0586,807.47253,799.81683,776.4469,709.9634,-0.21307373046875,-0.01910400390625,0.99041748046875,2.25799560546875,1.069183349609375,-0.082244873046875,1,1.0,1.0,1.0,1.0,50.00
2022-11-23 20:23:00.545,0.4808067,-0.3201609,-0.4238838,0.6898278,0.39655945,-0.03319203,-0.19710349,0.5812334,0.41958672,0.3133989,0.053525843,0.82039964,0.0743816,-0.23987481,0.018071001,0.36149603,-0.25100324,-0.85606277,-0.42987737,0.025697727,774.43225,805.8608,804.2491,776.8498,694.2491,-0.21307373046875,-0.01910400390625,0.99041748046875,2.25799560546875,1.069183349609375,-0.082244873046875,1,1.0,1.0,1.0,1.0,50.00
2022-11-23 20:23:00.545,0.4808067,-0.3201609,-0.4238838,0.6898278,0.39655945,-0.03319203,-0.19710349,0.5812334,0.41958672,0.3133989,0.053525843,0.82039964,0.0743816,-0.23987481,0.018071001,0.36149603,-0.25100324,-0.85606277,-0.42987737,0.025697727,816.7399,806.26373,802.23444,807.47253,949.707,-0.21307373046875,-0.01910400390625,0.99041748046875,2.25799560546875,1.069183349609375,-0.082244873046875,1,1.0,1.0,1.0,1.0,50.00
2022-11-23 20:23:00.546,0.4808067,-0.3201609,-0.4238838,0.6898278,0.39655945,-0.03319203,-0.19710349,0.5812334,0.41958672,0.3133989,0.053525843,0.82039964,0.0743816,-0.23987481,0.018071001,0.36149603,-0.25100324,-0.85606277,-0.42987737,0.025697727,821.978,801.02563,802.23444,809.0842,1046.8132,-0.21307373046875,-0.01910400390625,0.99041748046875,2.25799560546875,1.069183349609375,-0.082244873046875,1,1.0,1.0,1.0,1.0,50.00
2022-11-23 20:23:00.546,0.4849333,-0.3731146,-0.41742355,0.67175955,0.38334733,-0.051467437,-0.21210538,0.5912237,0.4713477,0.30509833,0.07852074,0.82039964,0.06627065,-0.24227157,0.023792025,0.35599363,-0.25486767,-0.8853986,-0.43037555,0.018551255,779.2674,801.02563,802.23444,785.31134,948.0952,-0.21307373046875,-0.01910400390625,0.99041748046875,2.25799560546875,1.069183349609375,-0.082244873046875,1,1.0,1.0,1.0,1.0,50.00
2022-11-23 20:23:00.547,0.4849333,-0.3731146,-0.41742355,0.67175955,0.38334733,-0.051467437,-0.21210538,0.5912237,0.4713477,0.30509833,0.07852074,0.82039964,0.06627065,-0.24227157,0.023792025,0.35599363,-0.25486767,-0.8853986,-0.43037555,0.018551255,763.5531,803.0403,798.20514,781.28204,773.6264,-0.21307373046875,-0.01910400390625,0.99041748046875,2.25799560546875,1.069183349609375,-0.082244873046875,1,1.0,1.0,1.0,1.0,50.00
2022-11-23 20:23:00.547,0.4849333,-0.3731146,-0.41742355,0.67175955,0.38334733,-0.051467437,-0.21210538,0.5912237,0.4713477,0.30509833,0.07852074,0.82039964,0.06627065,-0.24227157,0.023792025,0.35599363,-0.25486767,-0.8853986,-0.43037555,0.018551255,793.7729,802.6374,801.02563,796.5934,704.3223,-0.21307373046875,-0.01910400390625,0.99041748046875,2.25799560546875,1.069183349609375,-0.082244873046875,1,1.0,1.0,1.0,1.0,50.00
2022-11-23 20:23:00.548,0.4849333,-0.3731146,-0.41742355,0.67175955,0.38334733,-0.051467437,-0.21210538,0.5912237,0.4713477,0.30509833,0.07852074,0.82039964,0.06627065,-0.24227157,0.023792025,0.35599363,-0.25486767,-0.8853986,-0.43037555,0.018551255,823.5897,801.4286,801.4286,810.293,837.28937,-0.21307373046875,-0.01910400390625,0.99041748046875,2.25799560546875,1.069183349609375,-0.082244873046875,1,1.0,1.0,1.0,1.0,50.00
2022-11-23 20:23:00.548,0.4849333,-0.3731146,-0.41742355,0.67175955,0.38334733,-0.051467437,-0.21210538,0.5912237,0.4713477,0.30509833,0.07852074,0.82039964,0.06627065,-0.24227157,0.023792025,0.35599363,-0.25486767,-0.8853986,-0.43037555,0.018551255,802.23444,801.02563,802.23444,789.7436,743.8095,-0.21307373046875,-0.01910400390625,0.99041748046875,2.25799560546875,1.069183349609375,-0.082244873046875,1,1.0,1.0,1.0,1.0,50.00
2022-11-23 20:23:00.572,0.4849333,-0.3731146,-0.41742355,0.67175955,0.38334733,-0.051467437,-0.21210538,0.5912237,0.4713477,0.30509833,0.07852074,0.82039964,0.06627065,-0.24227157,0.023792025,0.35599363,-0.25486767,-0.8853986,-0.43037555,0.018551255,771.2088,801.4286,801.02563,773.6264,585.4579,-0.20758056640625,-0.0318603515625,0.9942626953125,3.46923828125,0.55328369140625,-4.97955322265625,1,1.0,1.0,1.0,1.0,50.00
2022-11-23 20:23:00.572,0.4849333,-0.3731146,-0.41742355,0.67175955,0.38334733,-0.051467437,-0.21210538,0.5912237,0.4713477,0.30509833,0.07852074,0.82039964,0.06627065,-0.24227157,0.023792025,0.35599363,-0.25486767,-0.8853986,-0.43037555,0.018551255,791.3553,799.011,801.4286,791.75824,686.1905,-0.20758056640625,-0.0318603515625,0.9942626953125,3.46923828125,0.55328369140625,-4.97955322265625,1,1.0,1.0,1.0,1.0,50.00
2022-11-23 20:23:00.572,0.4849333,-0.3731146,-0.41742355,0.67175955,0.38334733,-0.051467437,-0.21210538,0.5912237,0.4713477,0.30509833,0.07852074,0.82039964,0.06627065,-0.24227157,0.023792025,0.35599363,-0.25486767,-0.8853986,-0.43037555,0.018551255,826.0073,799.011,803.8461,819.9634,906.99634,-0.20758056640625,-0.0318603515625,0.9942626953125,3.46923828125,0.55328369140625,-4.97955322265625,1,1.0,1.0,1.0,1.0,50.00
2022-11-23 20:23:00.573,0.4849333,-0.3731146,-0.41742355,0.67175955,0.38334733,-0.051467437,-0.21210538,0.5912237,0.4713477,0.30509833,0.07852074,0.82039964,0.06627065,-0.24227157,0.023792025,0.35599363,-0.25486767,-0.8853986,-0.43037555,0.018551255,805.8608,803.8461,801.4286,814.3223,917.8755,-0.20758056640625,-0.0318603515625,0.9942626953125,3.46923828125,0.55328369140625,-4.97955322265625,1,1.0,1.0,1.0,1.0,50.00
2022-11-23 20:23:00.573,0.4849333,-0.3731146,-0.41742355,0.67175955,0.38334733,-0.051467437,-0.21210538,0.5912237,0.4713477,0.30509833,0.07852074,0.82039964,0.06627065,-0.24227157,0.023792025,0.35599363,-0.25486767,-0.8853986,-0.43037555,0.018551255,767.5824,804.2491,801.4286,783.69965,702.71063,-0.20758056640625,-0.0318603515625,0.9942626953125,3.46923828125,0.55328369140625,-4.97955322265625,1,1.0,1.0,1.0,1.0,50.00
2022-11-23 20:23:00.573,0.4849333,-0.3731146,-0.41742355,0.67175955,0.38334733,-0.051467437,-0.21210538,0.5912237,0.4713477,0.30509833,0.07852074,0.82039964,0.06627065,-0.24227157,0.023792025,0.35599363,-0.25486767,-0.8853986,-0.43037555,0.018551255,776.4469,802.6374,801.8315,789.7436,695.4579,-0.20758056640625,-0.0318603515625,0.9942626953125,3.46923828125,0.55328369140625,-4.97955322265625,1,1.0,1.0,1.0,1.0,50.00
2022-11-23 20:23:00.574,0.4849333,-0.3731146,-0.41742355,0.67175955,0.38334733,-0.051467437,-0.21210538,0.5912237,0.4713477,0.30509833,0.07852074,0.82039964,0.06627065,-0.24227157,0.023792025,0.35599363,-0.25486767,-0.8853986,-0.43037555,0.018551255,818.7546,799.81683,801.8315,821.1722,1005.7143,-0.20758056640625,-0.0318603515625,0.9942626953125,3.46923828125,0.55328369140625,-4.97955322265625,1,1.0,1.0,1.0,1.0,50.00
2022-11-23 20:23:00.574,0.4849333,-0.3731146,-0.41742355,0.67175955,0.38334733,-0.051467437,-0.21210538,0.5912237,0.4713477,0.30509833,0.07852074,0.82039964,0.06627065,-0.24227157,0.023792025,0.35599363,-0.25486767,-0.8853986,-0.43037555,0.018551255,821.978,793.7729,801.02563,828.8278,1173.7362,-0.20758056640625,-0.0318603515625,0.9942626953125,3.46923828125,0.55328369140625,-4.97955322265625,1,1.0,1.0,1.0,1.0,50.00
2022-11-23 20:23:00.574,0.4849333,-0.3731146,-0.41742355,0.67175955,0.38334733,-0.051467437,-0.21210538,0.5912237,0.4713477,0.30509833,0.07852074,0.82039964,0.06627065,-0.24227157,0.023792025,0.35599363,-0.25486767,-0.8853986,-0.43037555,0.018551255,796.99634,793.7729,801.4286,811.0989,805.4579,-0.20758056640625,-0.0318603515625,0.9942626953125,3.46923828125,0.55328369140625,-4.97955322265625,1,1.0,1.0,1.0,1.0,50.00
2022-11-23 20:23:00.574,0.4849333,-0.3731146,-0.41742355,0.67175955,0.38334733,-0.051467437,-0.21210538,0.5912237,0.4713477,0.30509833,0.07852074,0.82039964,0.06627065,-0.24227157,0.023792025,0.35599363,-0.25486767,-0.8853986,-0.43037555,0.018551255,801.8315,802.6374,795.78754,805.8608,608.022,-0.20758056640625,-0.0318603515625,0.9942626953125,3.46923828125,0.55328369140625,-4.97955322265625,1,1.0,1.0,1.0,1.0,50.00
2022-11-23 20:23:00.575,0.4849333,-0.3731146,-0.41742355,0.67175955,0.38334733,-0.051467437,-0.21210538,0.5912237,0.4713477,0.30509833,0.07852074,0.82039964,0.06627065,-0.24227157,0.023792025,0.35599363,-0.25486767,-0.8853986,-0.43037555,0.018551255,809.89014,808.2784,794.9817,809.4872,775.2381,-0.20758056640625,-0.0318603515625,0.9942626953125,3.46923828125,0.55328369140625,-4.97955322265625,1,1.0,1.0,1.0,1.0,50.00
2022-11-23 20:23:00.575,0.4849333,-0.3731146,-0.41742355,0.67175955,0.38334733,-0.051467437,-0.21210538,0.5912237,0.4713477,0.30509833,0.07852074,0.82039964,0.06627065,-0.24227157,0.023792025,0.35599363,-0.25486767,-0.8853986,-0.43037555,0.018551255,806.26373,808.68134,798.20514,798.20514,884.0293,-0.20758056640625,-0.0318603515625,0.9942626953125,3.46923828125,0.55328369140625,-4.97955322265625,1,1.0,1.0,1.0,1.0,50.00
2022-11-23 20:23:00.643,0.4849333,-0.3731146,-0.41742355,0.67175955,0.38334733,-0.051467437,-0.21210538,0.5912237,0.4713477,0.30509833,0.07852074,0.82039964,0.06627065,-0.24227157,0.023792025,0.35599363,-0.25486767,-0.8853986,-0.43037555,0.018551255,780.87915,811.50183,789.34064,770.80585,753.47986,-0.20758056640625,-0.0318603515625,0.9942626953125,3.46923828125,0.55328369140625,-4.97955322265625,1,1.0,1.0,1.0,1.0,50.00
2022-11-23 20:23:00.643,0.4849333,-0.3731146,-0.41742355,0.67175955,0.38334733,-0.051467437,-0.21210538,0.5912237,0.4713477,0.30509833,0.07852074,0.82039964,0.06627065,-0.24227157,0.023792025,0.35599363,-0.25486767,-0.8853986,-0.43037555,0.018551255,755.4945,822.7839,788.1319,749.45056,620.9158,-0.20758056640625,-0.0318603515625,0.9942626953125,3.46923828125,0.55328369140625,-4.97955322265625,1,1.0,1.0,1.0,1.0,50.00
2022-11-23 20:23:00.644,0.4849333,-0.3731146,-0.41742355,0.67175955,0.38334733,-0.051467437,-0.21210538,0.5912237,0.4713477,0.30509833,0.07852074,0.82039964,0.06627065,-0.24227157,0.023792025,0.35599363,-0.25486767,-0.8853986,-0.43037555,0.018551255,769.19415,828.4249,786.1172,752.674,724.87177,-0.20758056640625,-0.0318603515625,0.9942626953125,3.46923828125,0.55328369140625,-4.97955322265625,1,1.0,1.0,1.0,1.0,50.00
2022-11-23 20:23:00.644,0.4849333,-0.3731146,-0.41742355,0.67175955,0.38334733,-0.051467437,-0.21210538,0.5912237,0.4713477,0.30509833,0.07852074,0.82039964,0.06627065,-0.24227157,0.023792025,0.35599363,-0.25486767,-0.8853986,-0.43037555,0.018551255,789.34064,826.4103,780.87915,760.32965,873.5531,-0.20758056640625,-0.0318603515625,0.9942626953125,3.46923828125,0.55328369140625,-4.97955322265625,1,1.0,1.0,1.0,1.0,50.00
2022-11-23 20:23:00.644,0.4849333,-0.3731146,-0.41742355,0.67175955,0.38334733,-0.051467437,-0.21210538,0.5912237,0.4713477,0.30509833,0.07852074,0.82039964,0.06627065,-0.24227157,0.023792025,0.35599363,-0.25486767,-0.8853986,-0.43037555,0.018551255,765.16486,831.2454,779.67035,737.3626,793.7729,-0.20758056640625,-0.0318603515625,0.9942626953125,3.46923828125,0.55328369140625,-4.97955322265625,1,1.0,1.0,1.0,1.0,50.00
2022-11-23 20:23:00.644,0.4849333,-0.3731146,-0.41742355,0.67175955,0.38334733,-0.051467437,-0.21210538,0.5912237,0.4713477,0.30509833,0.07852074,0.82039964,0.06627065,-0.24227157,0.023792025,0.35599363,-0.25486767,-0.8853986,-0.43037555,0.018551255,731.7216,836.8865,781.28204,718.4249,649.92676,-0.20758056640625,-0.0318603515625,0.9942626953125,3.46923828125,0.55328369140625,-4.97955322265625,1,1.0,1.0,1.0,1.0,50.00
2022-11-23 20:23:00.644,0.4849333,-0.3731146,-0.41742355,0.67175955,0.38334733,-0.051467437,-0.21210538,0.5912237,0.4713477,0.30509833,0.07852074,0.82039964,0.06627065,-0.24227157,0.023792025,0.35599363,-0.25486767,-0.8853986,-0.43037555,0.018551255,735.7509,839.707,779.67035,728.9011,908.20514,-0.20758056640625,-0.0318603515625,0.9942626953125,3.46923828125,0.55328369140625,-4.97955322265625,1,1.0,1.0,1.0,1.0,50.00
2022-11-23 20:23:00.645,0.4849333,-0.3731146,-0.41742355,0.67175955,0.38334733,-0.051467437,-0.21210538,0.5912237,0.4713477,0.30509833,0.07852074,0.82039964,0.06627065,-0.24227157,0.023792025,0.35599363,-0.25486767,-0.8853986,-0.43037555,0.018551255,764.7619,845.7509,775.64105,737.76556,1033.5165,-0.20758056640625,-0.0318603515625,0.9942626953125,3.46923828125,0.55328369140625,-4.97955322265625,1,1.0,1.0,1.0,1.0,50.00
2022-11-23 20:23:00.645,0.4849333,-0.3731146,-0.41742355,0.67175955,0.38334733,-0.051467437,-0.21210538,0.5912237,0.4713477,0.30509833,0.07852074,0.82039964,0.06627065,-0.24227157,0.023792025,0.35599363,-0.25486767,-0.8853986,-0.43037555,0.018551255,751.8681,845.7509,773.22345,718.4249,809.89014,-0.20758056640625,-0.0318603515625,0.9942626953125,3.46923828125,0.55328369140625,-4.97955322265625,1,1.0,1.0,1.0,1.0,50.00
2022-11-23 20:23:00.645,0.48818806,-0.4215486,-0.40470615,0.6708904,0.3792473,-0.08567808,-0.22814214,0.6109799,0.47093478,0.22777186,0.08862964,0.81876856,0.06613816,-0.24392824,0.029256202,0.3503584,-0.24251327,-0.90969735,-0.42866546,0.018377606,709.15753,844.5421,767.98535,686.99634,768.3883,-0.20758056640625,-0.0318603515625,0.9942626953125,3.46923828125,0.55328369140625,-4.97955322265625,1,1.0,1.0,1.0,1.0,50.00
2022-11-23 20:23:00.646,0.48818806,-0.4215486,-0.40470615,0.6708904,0.3792473,-0.08567808,-0.22814214,0.6109799,0.47093478,0.22777186,0.08862964,0.81876856,0.06613816,-0.24392824,0.029256202,0.3503584,-0.24251327,-0.90969735,-0.42866546,0.018377606,705.5311,849.3773,762.74725,684.17584,784.10254,-0.20758056640625,-0.0318603515625,0.9942626953125,3.46923828125,0.55328369140625,-4.97955322265625,1,1.0,1.0,1.0,1.0,50.00
2022-11-23 20:23:00.646,0.48818806,-0.4215486,-0.40470615,0.6708904,0.3792473,-0.08567808,-0.22814214,0.6109799,0.47093478,0.22777186,0.08862964,0.81876856,0.06613816,-0.24392824,0.029256202,0.3503584,-0.24251327,-0.90969735,-0.42866546,0.018377606,734.94507,852.1978,760.32965,705.5311,805.8608,-0.20758056640625,-0.0318603515625,0.9942626953125,3.46923828125,0.55328369140625,-4.97955322265625,1,1.0,1.0,1.0,1.0,50.00
2022-11-23 20:23:00.689,0.48818806,-0.4215486,-0.40470615,0.6708904,0.3792473,-0.08567808,-0.22814214,0.6109799,0.47093478,0.22777186,0.08862964,0.81876856,0.06613816,-0.24392824,0.029256202,0.3503584,-0.24251327,-0.90969735,-0.42866546,0.018377606,736.55676,852.1978,764.35895,700.293,867.9121,-0.1817626953125,-0.02630615234375,1.005615234375,4.007568359375,-3.09539794921875,-2.893524169921875,1,1.0,1.0,1.0,1.0,50.00
2022-11-23 20:23:00.690,0.48818806,-0.4215486,-0.40470615,0.6708904,0.3792473,-0.08567808,-0.22814214,0.6109799,0.47093478,0.22777186,0.08862964,0.81876856,0.06613816,-0.24392824,0.029256202,0.3503584,-0.24251327,-0.90969735,-0.42866546,0.018377606,691.02563,851.79486,765.56775,667.25275,777.25275,-0.1817626953125,-0.02630615234375,1.005615234375,4.007568359375,-3.09539794921875,-2.893524169921875,1,1.0,1.0,1.0,1.0,50.00
2022-11-23 20:23:00.690,0.48818806,-0.4215486,-0.40470615,0.6708904,0.3792473,-0.08567808,-0.22814214,0.6109799,0.47093478,0.22777186,0.08862964,0.81876856,0.06613816,-0.24392824,0.029256202,0.3503584,-0.24251327,-0.90969735,-0.42866546,0.018377606,689.011,857.4359,767.98535,675.31134,626.9597,-0.1817626953125,-0.02630615234375,1.005615234375,4.007568359375,-3.09539794921875,-2.893524169921875,1,1.0,1.0,1.0,1.0,50.00
2022-11-23 20:23:00.690,0.48818806,-0.4215486,-0.40470615,0.6708904,0.3792473,-0.08567808,-0.22814214,0.6109799,0.47093478,0.22777186,0.08862964,0.81876856,0.06613816,-0.24392824,0.029256202,0.3503584,-0.24251327,-0.90969735,-0.42866546,0.018377606,736.55676,861.8681,768.7912,709.5604,718.8278,-0.1817626953125,-0.02630615234375,1.005615234375,4.007568359375,-3.09539794921875,-2.893524169921875,1,1.0,1.0,1.0,1.0,50.00
2022-11-23 20:23:00.690,0.48818806,-0.4215486,-0.40470615,0.6708904,0.3792473,-0.08567808,-0.22814214,0.6109799,0.47093478,0.22777186,0.08862964,0.81876856,0.06613816,-0.24392824,0.029256202,0.3503584,-0.24251327,-0.90969735,-0.42866546,0.018377606,755.89746,857.8388,761.13556,712.381,802.6374,-0.1817626953125,-0.02630615234375,1.005615234375,4.007568359375,-3.09539794921875,-2.893524169921875,1,1.0,1.0,1.0,1.0,50.00
2022-11-23 20:23:00.691,0.48818806,-0.4215486,-0.40470615,0.6708904,0.3792473,-0.08567808,-0.22814214,0.6109799,0.47093478,0.22777186,0.08862964,0.81876856,0.06613816,-0.24392824,0.029256202,0.3503584,-0.24251327,-0.90969735,-0.42866546,0.018377606,728.0952,859.45056,761.53845,697.0696,901.3553,-0.1817626953125,-0.02630615234375,1.005615234375,4.007568359375,-3.09539794921875,-2.893524169921875,1,1.0,1.0,1.0,1.0,50.00
2022-11-23 20:23:00.691,0.48818806,-0.4215486,-0.40470615,0.6708904,0.3792473,-0.08567808,-0.22814214,0.6109799,0.47093478,0.22777186,0.08862964,0.81876856,0.06613816,-0.24392824,0.029256202,0.3503584,-0.24251327,-0.90969735,-0.42866546,0.018377606,706.7399,862.27106,765.16486,690.2198,865.09155,-0.1817626953125,-0.02630615234375,1.005615234375,4.007568359375,-3.09539794921875,-2.893524169921875,1,1.0,1.0,1.0,1.0,50.00
2022-11-23 20:23:00.691,0.48818806,-0.4215486,-0.40470615,0.6708904,0.3792473,-0.08567808,-0.22814214,0.6109799,0.47093478,0.22777186,0.08862964,0.81876856,0.06613816,-0.24392824,0.029256202,0.3503584,-0.24251327,-0.90969735,-0.42866546,0.018377606,735.7509,856.63007,763.1502,704.3223,743.8095,-0.1817626953125,-0.02630615234375,1.005615234375,4.007568359375,-3.09539794921875,-2.893524169921875,1,1.0,1.0,1.0,1.0,50.00
2022-11-23 20:23:00.691,0.48818806,-0.4215486,-0.40470615,0.6708904,0.3792473,-0.08567808,-0.22814214,0.6109799,0.47093478,0.22777186,0.08862964,0.81876856,0.06613816,-0.24392824,0.029256202,0.3503584,-0.24251327,-0.90969735,-0.42866546,0.018377606,771.2088,855.0183,760.7326,726.8865,792.96704,-0.1817626953125,-0.02630615234375,1.005615234375,4.007568359375,-3.09539794921875,-2.893524169921875,1,1.0,1.0,1.0,1.0,50.00
2022-11-23 20:23:00.692,0.48818806,-0.4215486,-0.40470615,0.6708904,0.3792473,-0.08567808,-0.22814214,0.6109799,0.47093478,0.22777186,0.08862964,0.81876856,0.06613816,-0.24392824,0.029256202,0.3503584,-0.24251327,-0.90969735,-0.42866546,0.018377606,759.12085,859.0476,755.89746,725.2747,862.674,-0.1817626953125,-0.02630615234375,1.005615234375,4.007568359375,-3.09539794921875,-2.893524169921875,1,1.0,1.0,1.0,1.0,50.00
2022-11-23 20:23:00.692,0.48818806,-0.4215486,-0.40470615,0.6708904,0.3792473,-0.08567808,-0.22814214,0.6109799,0.47093478,0.22777186,0.08862964,0.81876856,0.06613816,-0.24392824,0.029256202,0.3503584,-0.24251327,-0.90969735,-0.42866546,0.018377606,728.49817,862.674,758.315,703.91943,780.07324,-0.1817626953125,-0.02630615234375,1.005615234375,4.007568359375,-3.09539794921875,-2.893524169921875,1,1.0,1.0,1.0,1.0,50.00
2022-11-23 20:23:00.692,0.48818806,-0.4215486,-0.40470615,0.6708904,0.3792473,-0.08567808,-0.22814214,0.6109799,0.47093478,0.22777186,0.08862964,0.81876856,0.06613816,-0.24392824,0.029256202,0.3503584,-0.24251327,-0.90969735,-0.42866546,0.018377606,745.42126,861.8681,764.35895,711.1722,634.61536,-0.1817626953125,-0.02630615234375,1.005615234375,4.007568359375,-3.09539794921875,-2.893524169921875,1,1.0,1.0,1.0,1.0,50.00
2022-11-23 20:23:00.735,0.48818806,-0.4215486,-0.40470615,0.6708904,0.3792473,-0.08567808,-0.22814214,0.6109799,0.47093478,0.22777186,0.08862964,0.81876856,0.06613816,-0.24392824,0.029256202,0.3503584,-0.24251327,-0.90969735,-0.42866546,0.018377606,786.9231,857.4359,761.9414,739.7802,786.52014,-0.18634033203125,-0.0262451171875,1.00091552734375,3.237457275390625,-1.30096435546875,-0.874786376953125,1,1.0,1.0,1.0,1.0,50.00
2022-11-23 20:23:00.736,0.48818806,-0.4215486,-0.40470615,0.6708904,0.3792473,-0.08567808,-0.22814214,0.6109799,0.47093478,0.22777186,0.08862964,0.81876856,0.06613816,-0.24392824,0.029256202,0.3503584,-0.24251327,-0.90969735,-0.42866546,0.018377606,782.49084,855.0183,758.71796,740.58606,817.9487,-0.18634033203125,-0.0262451171875,1.00091552734375,3.237457275390625,-1.30096435546875,-0.874786376953125,1,1.0,1.0,1.0,1.0,50.00
2022-11-23 20:23:00.736,0.48818806,-0.4215486,-0.40470615,0.6708904,0.3792473,-0.08567808,-0.22814214,0.6109799,0.47093478,0.22777186,0.08862964,0.81876856,0.06613816,-0.24392824,0.029256202,0.3503584,-0.24251327,-0.90969735,-0.42866546,0.018377606,753.8828,850.989,758.315,721.6484,719.6337,-0.18634033203125,-0.0262451171875,1.00091552734375,3.237457275390625,-1.30096435546875,-0.874786376953125,1,1.0,1.0,1.0,1.0,50.00
2022-11-23 20:23:00.736,0.48818806,-0.4215486,-0.40470615,0.6708904,0.3792473,-0.08567808,-0.22814214,0.6109799,0.47093478,0.22777186,0.08862964,0.81876856,0.06613816,-0.24392824,0.029256202,0.3503584,-0.24251327,-0.90969735,-0.42866546,0.018377606,748.24176,847.3626,764.35895,718.4249,618.9011,-0.18634033203125,-0.0262451171875,1.00091552734375,3.237457275390625,-1.30096435546875,-0.874786376953125,1,1.0,1.0,1.0,1.0,50.00
2022-11-23 20:23:00.736,0.48818806,-0.4215486,-0.40470615,0.6708904,0.3792473,-0.08567808,-0.22814214,0.6109799,0.47093478,0.22777186,0.08862964,0.81876856,0.06613816,-0.24392824,0.029256202,0.3503584,-0.24251327,-0.90969735,-0.42866546,0.018377606,780.87915,848.1685,767.5824,744.61536,779.2674,-0.18634033203125,-0.0262451171875,1.00091552734375,3.237457275390625,-1.30096435546875,-0.874786376953125,1,1.0,1.0,1.0,1.0,50.00
2022-11-23 20:23:00.737,0.48818806,-0.4215486,-0.40470615,0.6708904,0.3792473,-0.08567808,-0.22814214,0.6109799,0.47093478,0.22777186,0.08862964,0.81876856,0.06613816,-0.24392824,0.029256202,0.3503584,-0.24251327,-0.90969735,-0.42866546,0.018377606,809.0842,847.76556,767.5824,763.95605,1114.5055,-0.18634033203125,-0.0262451171875,1.00091552734375,3.237457275390625,-1.30096435546875,-0.874786376953125,1,1.0,1.0,1.0,1.0,50.00
2022-11-23 20:23:00.737,0.48818806,-0.4215486,-0.40470615,0.6708904,0.3792473,-0.08567808,-0.22814214,0.6109799,0.47093478,0.22777186,0.08862964,0.81876856,0.06613816,-0.24392824,0.029256202,0.3503584,-0.24251327,-0.90969735,-0.42866546,0.018377606,777.6557,844.5421,767.5824,743.4066,973.0769,-0.18634033203125,-0.0262451171875,1.00091552734375,3.237457275390625,-1.30096435546875,-0.874786376953125,1,1.0,1.0,1.0,1.0,50.00
2022-11-23 20:23:00.737,0.48818806,-0.4215486,-0.40470615,0.6708904,0.3792473,-0.08567808,-0.22814214,0.6109799,0.47093478,0.22777186,0.08862964,0.81876856,0.06613816,-0.24392824,0.029256202,0.3503584,-0.24251327,-0.90969735,-0.42866546,0.018377606,760.32965,842.52747,769.19415,737.3626,658.7912,-0.18634033203125,-0.0262451171875,1.00091552734375,3.237457275390625,-1.30096435546875,-0.874786376953125,1,1.0,1.0,1.0,1.0,50.00
2022-11-23 20:23:00.737,0.48818806,-0.4215486,-0.40470615,0.6708904,0.3792473,-0.08567808,-0.22814214,0.6109799,0.47093478,0.22777186,0.08862964,0.81876856,0.06613816,-0.24392824,0.029256202,0.3503584,-0.24251327,-0.90969735,-0.42866546,0.018377606,792.1612,842.52747,769.19415,767.1795,743.4066,-0.18634033203125,-0.0262451171875,1.00091552734375,3.237457275390625,-1.30096435546875,-0.874786376953125,1,1.0,1.0,1.0,1.0,50.00
2022-11-23 20:23:00.738,0.48818806,-0.4215486,-0.40470615,0.6708904,0.3792473,-0.08567808,-0.22814214,0.6109799,0.47093478,0.22777186,0.08862964,0.81876856,0.06613816,-0.24392824,0.029256202,0.3503584,-0.24251327,-0.90969735,-0.42866546,0.018377606,816.7399,835.2747,771.2088,788.5348,1056.0806,-0.18634033203125,-0.0262451171875,1.00091552734375,3.237457275390625,-1.30096435546875,-0.874786376953125,1,1.0,1.0,1.0,1.0,50.00
2022-11-23 20:23:00.738,0.48818806,-0.4215486,-0.40470615,0.6708904,0.3792473,-0.08567808,-0.22814214,0.6109799,0.47093478,0.22777186,0.08862964,0.81876856,0.06613816,-0.24392824,0.029256202,0.3503584,-0.24251327,-0.90969735,-0.42866546,0.018377606,805.4579,838.0952,777.6557,780.87915,913.0403,-0.18634033203125,-0.0262451171875,1.00091552734375,3.237457275390625,-1.30096435546875,-0.874786376953125,1,1.0,1.0,1.0,1.0,50.00
2022-11-23 20:23:00.738,0.49302992,-0.2662341,-0.23118924,0.67214745,0.3654665,-0.1027103,-0.22725871,0.6289526,0.47049075,0.11837101,0.090125814,0.817241,0.05972882,-0.24475056,0.031095058,0.3401813,-0.23286621,-0.9273285,-0.4255201,0.02377527,775.64105,835.2747,780.07324,762.3443,601.1722,-0.18634033203125,-0.0262451171875,1.00091552734375,3.237457275390625,-1.30096435546875,-0.874786376953125,1,1.0,1.0,1.0,1.0,50.00
2022-11-23 20:23:00.761,0.49302992,-0.2662341,-0.23118924,0.67214745,0.3654665,-0.1027103,-0.22725871,0.6289526,0.47049075,0.11837101,0.090125814,0.817241,0.05972882,-0.24475056,0.031095058,0.3401813,-0.23286621,-0.9273285,-0.4255201,0.02377527,800.2198,826.8132,779.67035,777.25275,771.2088,-0.1986083984375,-0.0264892578125,1.00152587890625,2.8411865234375,-0.186920166015625,-1.03179931640625,1,1.0,1.0,1.0,1.0,50.00
2022-11-23 20:23:00.761,0.49302992,-0.2662341,-0.23118924,0.67214745,0.3654665,-0.1027103,-0.22725871,0.6289526,0.47049075,0.11837101,0.090125814,0.817241,0.05972882,-0.24475056,0.031095058,0.3401813,-0.23286621,-0.9273285,-0.4255201,0.02377527,837.6923,825.6044,783.2967,802.6374,942.4542,-0.1986083984375,-0.0264892578125,1.00152587890625,2.8411865234375,-0.186920166015625,-1.03179931640625,1,1.0,1.0,1.0,1.0,50.00
2022-11-23 20:23:00.761,0.49302992,-0.2662341,-0.23118924,0.67214745,0.3654665,-0.1027103,-0.22725871,0.6289526,0.47049075,0.11837101,0.090125814,0.817241,0.05972882,-0.24475056,0.031095058,0.3401813,-0.23286621,-0.9273285,-0.4255201,0.02377527,824.7985,819.9634,785.31134,799.41394,781.28204,-0.1986083984375,-0.0264892578125,1.00152587890625,2.8411865234375,-0.186920166015625,-1.03179931640625,1,1.0,1.0,1.0,1.0,50.00
2022-11-23 20:23:00.762,0.49302992,-0.2662341,-0.23118924,0.67214745,0.3654665,-0.1027103,-0.22725871,0.6289526,0.47049075,0.11837101,0.090125814,0.817241,0.05972882,-0.24475056,0.031095058,0.3401813,-0.23286621,-0.9273285,-0.4255201,0.02377527,795.38464,815.5311,788.93774,783.2967,625.7509,-0.1986083984375,-0.0264892578125,1.00152587890625,2.8411865234375,-0.186920166015625,-1.03179931640625,1,1.0,1.0,1.0,1.0,50.00
2022-11-23 20:23:00.762,0.49302992,-0.2662341,-0.23118924,0.67214745,0.3654665,-0.1027103,-0.22725871,0.6289526,0.47049075,0.11837101,0.090125814,0.817241,0.05972882,-0.24475056,0.031095058,0.3401813,-0.23286621,-0.9273285,-0.4255201,0.02377527,802.6374,814.3223,791.3553,795.38464,691.4286,-0.1986083984375,-0.0264892578125,1.00152587890625,2.8411865234375,-0.186920166015625,-1.03179931640625,1,1.0,1.0,1.0,1.0,50.00
2022-11-23 20:23:00.762,0.49302992,-0.2662341,-0.23118924,0.67214745,0.3654665,-0.1027103,-0.22725871,0.6289526,0.47049075,0.11837101,0.090125814,0.817241,0.05972882,-0.24475056,0.031095058,0.3401813,-0.23286621,-0.9273285,-0.4255201,0.02377527,834.0659,812.3077,788.5348,818.3516,890.07324,-0.1986083984375,-0.0264892578125,1.00152587890625,2.8411865234375,-0.186920166015625,-1.03179931640625,1,1.0,1.0,1.0,1.0,50.00
2022-11-23 20:23:00.762,0.49302992,-0.2662341,-0.23118924,0.67214745,0.3654665,-0.1027103,-0.22725871,0.6289526,0.47049075,0.11837101,0.090125814,0.817241,0.05972882,-0.24475056,0.031095058,0.3401813,-0.23286621,-0.9273285,-0.4255201,0.02377527,836.4835,809.0842,784.5055,816.337,857.03296,-0.1986083984375,-0.0264892578125,1.00152587890625,2.8411865234375,-0.186920166015625,-1.03179931640625,1,1.0,1.0,1.0,1.0,50.00
2022-11-23 20:23:00.763,0.49302992,-0.2662341,-0.23118924,0.67214745,0.3654665,-0.1027103,-0.22725871,0.6289526,0.47049075,0.11837101,0.090125814,0.817241,0.05972882,-0.24475056,0.031095058,0.3401813,-0.23286621,-0.9273285,-0.4255201,0.02377527,808.2784,807.0696,784.10254,788.1319,611.2454,-0.1986083984375,-0.0264892578125,1.00152587890625,2.8411865234375,-0.186920166015625,-1.03179931640625,1,1.0,1.0,1.0,1.0,50.00
2022-11-23 20:23:00.763,0.49302992,-0.2662341,-0.23118924,0.67214745,0.3654665,-0.1027103,-0.22725871,0.6289526,0.47049075,0.11837101,0.090125814,0.817241,0.05972882,-0.24475056,0.031095058,0.3401813,-0.23286621,-0.9273285,-0.4255201,0.02377527,799.81683,809.0842,786.1172,789.34064,709.5604,-0.1986083984375,-0.0264892578125,1.00152587890625,2.8411865234375,-0.186920166015625,-1.03179931640625,1,1.0,1.0,1.0,1.0,50.00
2022-11-23 20:23:00.763,0.49302992,-0.2662341,-0.23118924,0.67214745,0.3654665,-0.1027103,-0.22725871,0.6289526,0.47049075,0.11837101,0.090125814,0.817241,0.05972882,-0.24475056,0.031095058,0.3401813,-0.23286621,-0.9273285,-0.4255201,0.02377527,831.2454,805.05493,788.5348,832.4542,964.21246,-0.1986083984375,-0.0264892578125,1.00152587890625,2.8411865234375,-0.186920166015625,-1.03179931640625,1,1.0,1.0,1.0,1.0,50.00
2022-11-23 20:23:00.763,0.49302992,-0.2662341,-0.23118924,0.67214745,0.3654665,-0.1027103,-0.22725871,0.6289526,0.47049075,0.11837101,0.090125814,0.817241,0.05972882,-0.24475056,0.031095058,0.3401813,-0.23286621,-0.9273285,-0.4255201,0.02377527,845.34796,800.2198,790.9524,840.10986,869.92676,-0.1986083984375,-0.0264892578125,1.00152587890625,2.8411865234375,-0.186920166015625,-1.03179931640625,1,1.0,1.0,1.0,1.0,50.00
2022-11-23 20:23:00.763,0.49302992,-0.2662341,-0.23118924,0.67214745,0.3654665,-0.1027103,-0.22725871,0.6289526,0.47049075,0.11837101,0.090125814,0.817241,0.05972882,-0.24475056,0.031095058,0.3401813,-0.23286621,-0.9273285,-0.4255201,0.02377527,820.3663,802.23444,796.99634,819.9634,709.5604,-0.1986083984375,-0.0264892578125,1.00152587890625,2.8411865234375,-0.186920166015625,-1.03179931640625,1,1.0,1.0,1.0,1.0,50.00
2022-11-23 20:23:00.810,0.49302992,-0.2662341,-0.23118924,0.67214745,0.3654665,-0.1027103,-0.22725871,0.6289526,0.47049075,0.11837101,0.090125814,0.817241,0.05972882,-0.24475056,0.031095058,0.3401813,-0.23286621,-0.9273285,-0.4255201,0.02377527,801.8315,800.2198,801.02563,809.0842,660.80585,-0.1978759765625,-0.03076171875,0.99896240234375,0.5084228515625,-1.084136962890625,-2.848663330078125,1,1.0,1.0,1.0,1.0,50.00
2022-11-23 20:23:00.811,0.49302992,-0.2662341,-0.23118924,0.67214745,0.3654665,-0.1027103,-0.22725871,0.6289526,0.47049075,0.11837101,0.090125814,0.817241,0.05972882,-0.24475056,0.031095058,0.3401813,-0.23286621,-0.9273285,-0.4255201,0.02377527,836.4835,798.20514,799.81683,825.6044,789.7436,-0.1978759765625,-0.03076171875,0.99896240234375,0.5084228515625,-1.084136962890625,-2.848663330078125,1,1.0,1.0,1.0,1.0,50.00
2022-11-23 20:23:00.811,0.49302992,-0.2662341,-0.23118924,0.67214745,0.3654665,-0.1027103,-0.22725871,0.6289526,0.47049075,0.11837101,0.090125814,0.817241,0.05972882,-0.24475056,0.031095058,0.3401813,-0.23286621,-0.9273285,-0.4255201,0.02377527,868.71796,797.8022,796.99634,848.97437,870.32965,-0.1978759765625,-0.03076171875,0.99896240234375,0.5084228515625,-1.084136962890625,-2.848663330078125,1,1.0,1.0,1.0,1.0,50.00
2022-11-23 20:23:00.811,0.49302992,-0.2662341,-0.23118924,0.67214745,0.3654665,-0.1027103,-0.22725871,0.6289526,0.47049075,0.11837101,0.090125814,0.817241,0.05972882,-0.24475056,0.031095058,0.3401813,-0.23286621,-0.9273285,-0.4255201,0.02377527,842.52747,801.4286,797.8022,832.4542,786.52014,-0.1978759765625,-0.03076171875,0.99896240234375,0.5084228515625,-1.084136962890625,-2.848663330078125,1,1.0,1.0,1.0,1.0,50.00
2022-11-23 20:23:00.812,0.49302992,-0.2662341,-0.23118924,0.67214745,0.3654665,-0.1027103,-0.22725871,0.6289526,0.47049075,0.11837101,0.090125814,0.817241,0.05972882,-0.24475056,0.031095058,0.3401813,-0.23286621,-0.9273285,-0.4255201,0.02377527,809.4872,800.6227,796.99634,807.8755,748.6447,-0.1978759765625,-0.03076171875,0.99896240234375,0.5084228515625,-1.084136962890625,-2.848663330078125,1,1.0,1.0,1.0,1.0,50.00
2022-11-23 20:23:00.812,0.49302992,-0.2662341,-0.23118924,0.67214745,0.3654665,-0.1027103,-0.22725871,0.6289526,0.47049075,0.11837101,0.090125814,0.817241,0.05972882,-0.24475056,0.031095058,0.3401813,-0.23286621,-0.9273285,-0.4255201,0.02377527,827.619,795.78754,797.3993,831.6484,877.1795,-0.1978759765625,-0.03076171875,0.99896240234375,0.5084228515625,-1.084136962890625,-2.848663330078125,1,1.0,1.0,1.0,1.0,50.00
2022-11-23 20:23:00.812,0.49302992,-0.2662341,-0.23118924,0.67214745,0.3654665,-0.1027103,-0.22725871,0.6289526,0.47049075,0.11837101,0.090125814,0.817241,0.05972882,-0.24475056,0.031095058,0.3401813,-0.23286621,-0.9273285,-0.4255201,0.02377527,857.8388,796.99634,797.8022,852.1978,1029.8901,-0.1978759765625,-0.03076171875,0.99896240234375,0.5084228515625,-1.084136962890625,-2.848663330078125,1,1.0,1.0,1.0,1.0,50.00
2022-11-23 20:23:00.812,0.49302992,-0.2662341,-0.23118924,0.67214745,0.3654665,-0.1027103,-0.22725871,0.6289526,0.47049075,0.11837101,0.090125814,0.817241,0.05972882,-0.24475056,0.031095058,0.3401813,-0.23286621,-0.9273285,-0.4255201,0.02377527,848.97437,795.38464,794.9817,833.663,998.46155,-0.1978759765625,-0.03076171875,0.99896240234375,0.5084228515625,-1.084136962890625,-2.848663330078125,1,1.0,1.0,1.0,1.0,50.00
2022-11-23 20:23:00.813,0.49302992,-0.2662341,-0.23118924,0.67214745,0.3654665,-0.1027103,-0.22725871,0.6289526,0.47049075,0.11837101,0.090125814,0.817241,0.05972882,-0.24475056,0.031095058,0.3401813,-0.23286621,-0.9273285,-0.4255201,0.02377527,821.5751,796.5934,794.57874,810.696,902.5641,-0.1978759765625,-0.03076171875,0.99896240234375,0.5084228515625,-1.084136962890625,-2.848663330078125,1,1.0,1.0,1.0,1.0,50.00
2022-11-23 20:23:00.813,0.49302992,-0.2662341,-0.23118924,0.67214745,0.3654665,-0.1027103,-0.22725871,0.6289526,0.47049075,0.11837101,0.090125814,0.817241,0.05972882,-0.24475056,0.031095058,0.3401813,-0.23286621,-0.9273285,-0.4255201,0.02377527,825.2015,799.81683,799.81683,823.5897,796.99634,-0.1978759765625,-0.03076171875,0.99896240234375,0.5084228515625,-1.084136962890625,-2.848663330078125,1,1.0,1.0,1.0,1.0,50.00
2022-11-23 20:23:00.813,0.49302992,-0.2662341,-0.23118924,0.67214745,0.3654665,-0.1027103,-0.22725871,0.6289526,0.47049075,0.11837101,0.090125814,0.817241,0.05972882,-0.24475056,0.031095058,0.3401813,-0.23286621,-0.9273285,-0.4255201,0.02377527,860.65936,799.81683,807.8755,853.4066,786.9231,-0.1978759765625,-0.03076171875,0.99896240234375,0.5084228515625,-1.084136962890625,-2.848663330078125,1,1.0,1.0,1.0,1.0,50.00
2022-11-23 20:23:00.814,0.49302992,-0.2662341,-0.23118924,0.67214745,0.3654665,-0.1027103,-0.22725871,0.6289526,0.47049075,0.11837101,0.090125814,0.817241,0.05972882,-0.24475056,0.031095058,0.3401813,-0.23286621,-0.9273285,-0.4255201,0.02377527,862.27106,798.20514,809.4872,847.3626,862.674,-0.1978759765625,-0.03076171875,0.99896240234375,0.5084228515625,-1.084136962890625,-2.848663330078125,1,1.0,1.0,1.0,1.0,50.00
2022-11-23 20:23:00.860,0.49302992,-0.2662341,-0.23118924,0.67214745,0.3654665,-0.1027103,-0.22725871,0.6289526,0.47049075,0.11837101,0.090125814,0.817241,0.05972882,-0.24475056,0.031095058,0.3401813,-0.23286621,-0.9273285,-0.4255201,0.02377527,827.619,793.36993,805.05493,817.9487,699.0842,-0.1978759765625,-0.03076171875,0.99896240234375,0.5084228515625,-1.084136962890625,-2.848663330078125,1,1.0,1.0,1.0,1.0,50.00
2022-11-23 20:23:00,,,,,,,,,,,,,,,,,,,,,,,,,,,,,,,,,,,,,,/muse/elements/blink
2022-11-23 20:23:00.861,0.50507504,0.07912272,0.083758555,0.6830487,0.35174894,-0.0071982634,-0.17566662,0.64735645,0.47049075,0.05809523,0.0924835,0.8143894,0.048079338,-0.24302925,0.025527699,0.3307681,-0.23159271,-0.9297964,-0.4233302,0.033789,814.7253,790.54944,803.44324,809.4872,614.4689,-0.1978759765625,-0.03076171875,0.99896240234375,0.5084228515625,-1.084136962890625,-2.848663330078125,1,1.0,1.0,1.0,1.0,50.00
2022-11-23 20:23:00.862,0.50507504,0.07912272,0.083758555,0.6830487,0.35174894,-0.0071982634,-0.17566662,0.64735645,0.47049075,0.05809523,0.0924835,0.8143894,0.048079338,-0.24302925,0.025527699,0.3307681,-0.23159271,-0.9297964,-0.4233302,0.033789,848.1685,796.99634,807.0696,843.3333,699.0842,-0.1978759765625,-0.03076171875,0.99896240234375,0.5084228515625,-1.084136962890625,-2.848663330078125,1,1.0,1.0,1.0,1.0,50.00
2022-11-23 20:23:00.863,0.50507504,0.07912272,0.083758555,0.6830487,0.35174894,-0.0071982634,-0.17566662,0.64735645,0.47049075,0.05809523,0.0924835,0.8143894,0.048079338,-0.24302925,0.025527699,0.3307681,-0.23159271,-0.9297964,-0.4233302,0.033789,869.5238,801.8315,807.47253,865.89746,873.5531,-0.1978759765625,-0.03076171875,0.99896240234375,0.5084228515625,-1.084136962890625,-2.848663330078125,1,1.0,1.0,1.0,1.0,50.00
2022-11-23 20:23:00.863,0.50507504,0.07912272,0.083758555,0.6830487,0.35174894,-0.0071982634,-0.17566662,0.64735645,0.47049075,0.05809523,0.0924835,0.8143894,0.048079338,-0.24302925,0.025527699,0.3307681,-0.23159271,-0.9297964,-0.4233302,0.033789,832.8571,800.6227,809.0842,840.5128,821.5751,-0.1978759765625,-0.03076171875,0.99896240234375,0.5084228515625,-1.084136962890625,-2.848663330078125,1,1.0,1.0,1.0,1.0,50.00
2022-11-23 20:23:00.863,0.50507504,0.07912272,0.083758555,0.6830487,0.35174894,-0.0071982634,-0.17566662,0.64735645,0.47049075,0.05809523,0.0924835,0.8143894,0.048079338,-0.24302925,0.025527699,0.3307681,-0.23159271,-0.9297964,-0.4233302,0.033789,813.1135,801.4286,809.4872,821.978,657.5824,-0.1978759765625,-0.03076171875,0.99896240234375,0.5084228515625,-1.084136962890625,-2.848663330078125,1,1.0,1.0,1.0,1.0,50.00
2022-11-23 20:23:00.863,0.50507504,0.07912272,0.083758555,0.6830487,0.35174894,-0.0071982634,-0.17566662,0.64735645,0.47049075,0.05809523,0.0924835,0.8143894,0.048079338,-0.24302925,0.025527699,0.3307681,-0.23159271,-0.9297964,-0.4233302,0.033789,844.5421,798.60803,805.8608,839.707,736.1539,-0.1978759765625,-0.03076171875,0.99896240234375,0.5084228515625,-1.084136962890625,-2.848663330078125,1,1.0,1.0,1.0,1.0,50.00
2022-11-23 20:23:00.864,0.50507504,0.07912272,0.083758555,0.6830487,0.35174894,-0.0071982634,-0.17566662,0.64735645,0.47049075,0.05809523,0.0924835,0.8143894,0.048079338,-0.24302925,0.025527699,0.3307681,-0.23159271,-0.9297964,-0.4233302,0.033789,863.47986,797.8022,803.44324,850.58606,936.4103,-0.1978759765625,-0.03076171875,0.99896240234375,0.5084228515625,-1.084136962890625,-2.848663330078125,1,1.0,1.0,1.0,1.0,50.00
2022-11-23 20:23:00.864,0.50507504,0.07912272,0.083758555,0.6830487,0.35174894,-0.0071982634,-0.17566662,0.64735645,0.47049075,0.05809523,0.0924835,0.8143894,0.048079338,-0.24302925,0.025527699,0.3307681,-0.23159271,-0.9297964,-0.4233302,0.033789,834.87177,800.2198,805.05493,832.0513,1029.4872,-0.1978759765625,-0.03076171875,0.99896240234375,0.5084228515625,-1.084136962890625,-2.848663330078125,1,1.0,1.0,1.0,1.0,50.00
2022-11-23 20:23:00.864,0.50507504,0.07912272,0.083758555,0.6830487,0.35174894,-0.0071982634,-0.17566662,0.64735645,0.47049075,0.05809523,0.0924835,0.8143894,0.048079338,-0.24302925,0.025527699,0.3307681,-0.23159271,-0.9297964,-0.4233302,0.033789,809.0842,799.81683,807.47253,815.9341,743.00366,-0.1978759765625,-0.03076171875,0.99896240234375,0.5084228515625,-1.084136962890625,-2.848663330078125,1,1.0,1.0,1.0,1.0,50.00
2022-11-23 20:23:00.864,0.50507504,0.07912272,0.083758555,0.6830487,0.35174894,-0.0071982634,-0.17566662,0.64735645,0.47049075,0.05809523,0.0924835,0.8143894,0.048079338,-0.24302925,0.025527699,0.3307681,-0.23159271,-0.9297964,-0.4233302,0.033789,826.0073,799.41394,807.47253,825.2015,646.30035,-0.1978759765625,-0.03076171875,0.99896240234375,0.5084228515625,-1.084136962890625,-2.848663330078125,1,1.0,1.0,1.0,1.0,50.00
2022-11-23 20:23:00.865,0.50507504,0.07912272,0.083758555,0.6830487,0.35174894,-0.0071982634,-0.17566662,0.64735645,0.47049075,0.05809523,0.0924835,0.8143894,0.048079338,-0.24302925,0.025527699,0.3307681,-0.23159271,-0.9297964,-0.4233302,0.033789,854.61536,799.011,810.696,846.9597,814.3223,-0.1978759765625,-0.03076171875,0.99896240234375,0.5084228515625,-1.084136962890625,-2.848663330078125,1,1.0,1.0,1.0,1.0,50.00
2022-11-23 20:23:00.910,0.50507504,0.07912272,0.083758555,0.6830487,0.35174894,-0.0071982634,-0.17566662,0.64735645,0.47049075,0.05809523,0.0924835,0.8143894,0.048079338,-0.24302925,0.025527699,0.3307681,-0.23159271,-0.9297964,-0.4233302,0.033789,841.7216,800.2198,811.0989,837.28937,840.5128,-0.19940185546875,-0.0423583984375,0.9874267578125,-0.31402587890625,-2.0635986328125,-3.701019287109375,1,1.0,1.0,1.0,1.0,50.00
2022-11-23 20:23:00.911,0.50507504,0.07912272,0.083758555,0.6830487,0.35174894,-0.0071982634,-0.17566662,0.64735645,0.47049075,0.05809523,0.0924835,0.8143894,0.048079338,-0.24302925,0.025527699,0.3307681,-0.23159271,-0.9297964,-0.4233302,0.033789,804.65204,802.23444,808.68134,810.696,702.3077,-0.19940185546875,-0.0423583984375,0.9874267578125,-0.31402587890625,-2.0635986328125,-3.701019287109375,1,1.0,1.0,1.0,1.0,50.00
2022-11-23 20:23:00.911,0.50507504,0.07912272,0.083758555,0.6830487,0.35174894,-0.0071982634,-0.17566662,0.64735645,0.47049075,0.05809523,0.0924835,0.8143894,0.048079338,-0.24302925,0.025527699,0.3307681,-0.23159271,-0.9297964,-0.4233302,0.033789,799.81683,802.6374,808.2784,808.68134,660.80585,-0.19940185546875,-0.0423583984375,0.9874267578125,-0.31402587890625,-2.0635986328125,-3.701019287109375,1,1.0,1.0,1.0,1.0,50.00
2022-11-23 20:23:00.911,0.50507504,0.07912272,0.083758555,0.6830487,0.35174894,-0.0071982634,-0.17566662,0.64735645,0.47049075,0.05809523,0.0924835,0.8143894,0.048079338,-0.24302925,0.025527699,0.3307681,-0.23159271,-0.9297964,-0.4233302,0.033789,835.6777,801.8315,803.8461,831.6484,815.12823,-0.19940185546875,-0.0423583984375,0.9874267578125,-0.31402587890625,-2.0635986328125,-3.701019287109375,1,1.0,1.0,1.0,1.0,50.00
2022-11-23 20:23:00.911,0.50507504,0.07912272,0.083758555,0.6830487,0.35174894,-0.0071982634,-0.17566662,0.64735645,0.47049075,0.05809523,0.0924835,0.8143894,0.048079338,-0.24302925,0.025527699,0.3307681,-0.23159271,-0.9297964,-0.4233302,0.033789,846.55676,801.02563,799.81683,838.49817,846.1539,-0.19940185546875,-0.0423583984375,0.9874267578125,-0.31402587890625,-2.0635986328125,-3.701019287109375,1,1.0,1.0,1.0,1.0,50.00
2022-11-23 20:23:00.912,0.50507504,0.07912272,0.083758555,0.6830487,0.35174894,-0.0071982634,-0.17566662,0.64735645,0.47049075,0.05809523,0.0924835,0.8143894,0.048079338,-0.24302925,0.025527699,0.3307681,-0.23159271,-0.9297964,-0.4233302,0.033789,800.2198,796.99634,799.011,807.47253,704.3223,-0.19940185546875,-0.0423583984375,0.9874267578125,-0.31402587890625,-2.0635986328125,-3.701019287109375,1,1.0,1.0,1.0,1.0,50.00
2022-11-23 20:23:00.912,0.50507504,0.07912272,0.083758555,0.6830487,0.35174894,-0.0071982634,-0.17566662,0.64735645,0.47049075,0.05809523,0.0924835,0.8143894,0.048079338,-0.24302925,0.025527699,0.3307681,-0.23159271,-0.9297964,-0.4233302,0.033789,786.1172,796.1905,803.0403,799.81683,673.69965,-0.19940185546875,-0.0423583984375,0.9874267578125,-0.31402587890625,-2.0635986328125,-3.701019287109375,1,1.0,1.0,1.0,1.0,50.00
2022-11-23 20:23:00.912,0.50507504,0.07912272,0.083758555,0.6830487,0.35174894,-0.0071982634,-0.17566662,0.64735645,0.47049075,0.05809523,0.0924835,0.8143894,0.048079338,-0.24302925,0.025527699,0.3307681,-0.23159271,-0.9297964,-0.4233302,0.033789,827.619,801.4286,803.8461,828.022,1005.7143,-0.19940185546875,-0.0423583984375,0.9874267578125,-0.31402587890625,-2.0635986328125,-3.701019287109375,1,1.0,1.0,1.0,1.0,50.00
2022-11-23 20:23:00.912,0.50507504,0.07912272,0.083758555,0.6830487,0.35174894,-0.0071982634,-0.17566662,0.64735645,0.47049075,0.05809523,0.0924835,0.8143894,0.048079338,-0.24302925,0.025527699,0.3307681,-0.23159271,-0.9297964,-0.4233302,0.033789,843.73627,801.02563,803.44324,837.28937,1104.4323,-0.19940185546875,-0.0423583984375,0.9874267578125,-0.31402587890625,-2.0635986328125,-3.701019287109375,1,1.0,1.0,1.0,1.0,50.00
2022-11-23 20:23:00.912,0.50507504,0.07912272,0.083758555,0.6830487,0.35174894,-0.0071982634,-0.17566662,0.64735645,0.47049075,0.05809523,0.0924835,0.8143894,0.048079338,-0.24302925,0.025527699,0.3307681,-0.23159271,-0.9297964,-0.4233302,0.033789,807.0696,794.57874,807.0696,812.3077,706.337,-0.19940185546875,-0.0423583984375,0.9874267578125,-0.31402587890625,-2.0635986328125,-3.701019287109375,1,1.0,1.0,1.0,1.0,50.00
2022-11-23 20:23:00.912,0.50507504,0.07912272,0.083758555,0.6830487,0.35174894,-0.0071982634,-0.17566662,0.64735645,0.47049075,0.05809523,0.0924835,0.8143894,0.048079338,-0.24302925,0.025527699,0.3307681,-0.23159271,-0.9297964,-0.4233302,0.033789,780.87915,793.7729,805.05493,800.6227,622.9304,-0.19940185546875,-0.0423583984375,0.9874267578125,-0.31402587890625,-2.0635986328125,-3.701019287109375,1,1.0,1.0,1.0,1.0,50.00
2022-11-23 20:23:00.913,0.50507504,0.07912272,0.083758555,0.6830487,0.35174894,-0.0071982634,-0.17566662,0.64735645,0.47049075,0.05809523,0.0924835,0.8143894,0.048079338,-0.24302925,0.025527699,0.3307681,-0.23159271,-0.9297964,-0.4233302,0.033789,805.4579,801.02563,802.23444,819.5604,745.82416,-0.19940185546875,-0.0423583984375,0.9874267578125,-0.31402587890625,-2.0635986328125,-3.701019287109375,1,1.0,1.0,1.0,1.0,50.00
2022-11-23 20:23:00.960,0.50507504,0.07912272,0.083758555,0.6830487,0.35174894,-0.0071982634,-0.17566662,0.64735645,0.47049075,0.05809523,0.0924835,0.8143894,0.048079338,-0.24302925,0.025527699,0.3307681,-0.23159271,-0.9297964,-0.4233302,0.033789,838.49817,801.8315,808.68134,836.08057,936.0073,-0.2005615234375,-0.04583740234375,0.99249267578125,0.949554443359375,-2.923431396484375,-3.4393310546875,1,1.0,1.0,1.0,1.0,50.00
2022-11-23 20:23:00.960,0.50507504,0.07912272,0.083758555,0.6830487,0.35174894,-0.0071982634,-0.17566662,0.64735645,0.47049075,0.05809523,0.0924835,0.8143894,0.048079338,-0.24302925,0.025527699,0.3307681,-0.23159271,-0.9297964,-0.4233302,0.033789,818.7546,801.02563,811.9048,819.9634,939.2308,-0.2005615234375,-0.04583740234375,0.99249267578125,0.949554443359375,-2.923431396484375,-3.4393310546875,1,1.0,1.0,1.0,1.0,50.00
2022-11-23 20:23:00.960,0.50507504,0.07912272,0.083758555,0.6830487,0.35174894,-0.0071982634,-0.17566662,0.64735645,0.47049075,0.05809523,0.0924835,0.8143894,0.048079338,-0.24302925,0.025527699,0.3307681,-0.23159271,-0.9297964,-0.4233302,0.033789,783.2967,799.011,806.6667,796.1905,792.1612,-0.2005615234375,-0.04583740234375,0.99249267578125,0.949554443359375,-2.923431396484375,-3.4393310546875,1,1.0,1.0,1.0,1.0,50.00
2022-11-23 20:23:00.961,0.520769,0.50348574,0.4336018,0.70421475,0.35098374,0.22771081,-0.046376053,0.6707944,0.47049075,0.0524205,0.10052123,0.8081647,0.037440512,-0.23961161,0.011636439,0.32687318,-0.2452484,-0.9099662,-0.42351046,0.045425035,793.7729,799.011,808.68134,808.68134,736.55676,-0.2005615234375,-0.04583740234375,0.99249267578125,0.949554443359375,-2.923431396484375,-3.4393310546875,1,1.0,1.0,1.0,1.0,50.00
2022-11-23 20:23:00.962,0.520769,0.50348574,0.4336018,0.70421475,0.35098374,0.22771081,-0.046376053,0.6707944,0.47049075,0.0524205,0.10052123,0.8081647,0.037440512,-0.23961161,0.011636439,0.32687318,-0.2452484,-0.9099662,-0.42351046,0.045425035,824.7985,799.81683,810.293,828.4249,746.63007,-0.2005615234375,-0.04583740234375,0.99249267578125,0.949554443359375,-2.923431396484375,-3.4393310546875,1,1.0,1.0,1.0,1.0,50.00
2022-11-23 20:23:00.962,0.520769,0.50348574,0.4336018,0.70421475,0.35098374,0.22771081,-0.046376053,0.6707944,0.47049075,0.0524205,0.10052123,0.8081647,0.037440512,-0.23961161,0.011636439,0.32687318,-0.2452484,-0.9099662,-0.42351046,0.045425035,825.6044,801.8315,807.8755,816.337,780.4762,-0.2005615234375,-0.04583740234375,0.99249267578125,0.949554443359375,-2.923431396484375,-3.4393310546875,1,1.0,1.0,1.0,1.0,50.00
2022-11-23 20:23:00.962,0.520769,0.50348574,0.4336018,0.70421475,0.35098374,0.22771081,-0.046376053,0.6707944,0.47049075,0.0524205,0.10052123,0.8081647,0.037440512,-0.23961161,0.011636439,0.32687318,-0.2452484,-0.9099662,-0.42351046,0.045425035,796.99634,805.4579,807.8755,801.02563,872.3443,-0.2005615234375,-0.04583740234375,0.99249267578125,0.949554443359375,-2.923431396484375,-3.4393310546875,1,1.0,1.0,1.0,1.0,50.00
2022-11-23 20:23:00.962,0.520769,0.50348574,0.4336018,0.70421475,0.35098374,0.22771081,-0.046376053,0.6707944,0.47049075,0.0524205,0.10052123,0.8081647,0.037440512,-0.23961161,0.011636439,0.32687318,-0.2452484,-0.9099662,-0.42351046,0.045425035,786.1172,805.8608,807.0696,806.6667,892.49084,-0.2005615234375,-0.04583740234375,0.99249267578125,0.949554443359375,-2.923431396484375,-3.4393310546875,1,1.0,1.0,1.0,1.0,50.00
2022-11-23 20:23:00.963,0.520769,0.50348574,0.4336018,0.70421475,0.35098374,0.22771081,-0.046376053,0.6707944,0.47049075,0.0524205,0.10052123,0.8081647,0.037440512,-0.23961161,0.011636439,0.32687318,-0.2452484,-0.9099662,-0.42351046,0.045425035,823.5897,803.44324,808.68134,825.6044,785.7143,-0.2005615234375,-0.04583740234375,0.99249267578125,0.949554443359375,-2.923431396484375,-3.4393310546875,1,1.0,1.0,1.0,1.0,50.00
2022-11-23 20:23:00.963,0.520769,0.50348574,0.4336018,0.70421475,0.35098374,0.22771081,-0.046376053,0.6707944,0.47049075,0.0524205,0.10052123,0.8081647,0.037440512,-0.23961161,0.011636439,0.32687318,-0.2452484,-0.9099662,-0.42351046,0.045425035,832.8571,800.2198,809.0842,826.0073,802.23444,-0.2005615234375,-0.04583740234375,0.99249267578125,0.949554443359375,-2.923431396484375,-3.4393310546875,1,1.0,1.0,1.0,1.0,50.00
2022-11-23 20:23:00.963,0.520769,0.50348574,0.4336018,0.70421475,0.35098374,0.22771081,-0.046376053,0.6707944,0.47049075,0.0524205,0.10052123,0.8081647,0.037440512,-0.23961161,0.011636439,0.32687318,-0.2452484,-0.9099662,-0.42351046,0.045425035,789.7436,798.60803,805.8608,794.57874,799.81683,-0.2005615234375,-0.04583740234375,0.99249267578125,0.949554443359375,-2.923431396484375,-3.4393310546875,1,1.0,1.0,1.0,1.0,50.00
2022-11-23 20:23:00.963,0.520769,0.50348574,0.4336018,0.70421475,0.35098374,0.22771081,-0.046376053,0.6707944,0.47049075,0.0524205,0.10052123,0.8081647,0.037440512,-0.23961161,0.011636439,0.32687318,-0.2452484,-0.9099662,-0.42351046,0.045425035,778.0586,800.2198,810.696,785.31134,758.315,-0.2005615234375,-0.04583740234375,0.99249267578125,0.949554443359375,-2.923431396484375,-3.4393310546875,1,1.0,1.0,1.0,1.0,50.00
2022-11-23 20:23:01.010,0.520769,0.50348574,0.4336018,0.70421475,0.35098374,0.22771081,-0.046376053,0.6707944,0.47049075,0.0524205,0.10052123,0.8081647,0.037440512,-0.23961161,0.011636439,0.32687318,-0.2452484,-0.9099662,-0.42351046,0.045425035,820.3663,804.2491,813.1135,808.2784,864.68866,-0.20501708984375,-0.05084228515625,0.98504638671875,2.22808837890625,-2.400054931640625,-3.745880126953125,1,1.0,1.0,1.0,1.0,50.00
2022-11-23 20:23:01.010,0.520769,0.50348574,0.4336018,0.70421475,0.35098374,0.22771081,-0.046376053,0.6707944,0.47049075,0.0524205,0.10052123,0.8081647,0.037440512,-0.23961161,0.011636439,0.32687318,-0.2452484,-0.9099662,-0.42351046,0.045425035,838.49817,805.4579,809.4872,820.7692,942.4542,-0.20501708984375,-0.05084228515625,0.98504638671875,2.22808837890625,-2.400054931640625,-3.745880126953125,1,1.0,1.0,1.0,1.0,50.00
2022-11-23 20:23:01.010,0.520769,0.50348574,0.4336018,0.70421475,0.35098374,0.22771081,-0.046376053,0.6707944,0.47049075,0.0524205,0.10052123,0.8081647,0.037440512,-0.23961161,0.011636439,0.32687318,-0.2452484,-0.9099662,-0.42351046,0.045425035,802.23444,801.8315,808.68134,800.6227,794.17584,-0.20501708984375,-0.05084228515625,0.98504638671875,2.22808837890625,-2.400054931640625,-3.745880126953125,1,1.0,1.0,1.0,1.0,50.00
2022-11-23 20:23:01.010,0.520769,0.50348574,0.4336018,0.70421475,0.35098374,0.22771081,-0.046376053,0.6707944,0.47049075,0.0524205,0.10052123,0.8081647,0.037440512,-0.23961161,0.011636439,0.32687318,-0.2452484,-0.9099662,-0.42351046,0.045425035,774.0293,801.4286,810.696,779.2674,675.7143,-0.20501708984375,-0.05084228515625,0.98504638671875,2.22808837890625,-2.400054931640625,-3.745880126953125,1,1.0,1.0,1.0,1.0,50.00
2022-11-23 20:23:01.011,0.520769,0.50348574,0.4336018,0.70421475,0.35098374,0.22771081,-0.046376053,0.6707944,0.47049075,0.0524205,0.10052123,0.8081647,0.037440512,-0.23961161,0.011636439,0.32687318,-0.2452484,-0.9099662,-0.42351046,0.045425035,791.3553,803.8461,809.0842,793.7729,686.99634,-0.20501708984375,-0.05084228515625,0.98504638671875,2.22808837890625,-2.400054931640625,-3.745880126953125,1,1.0,1.0,1.0,1.0,50.00
2022-11-23 20:23:01.011,0.520769,0.50348574,0.4336018,0.70421475,0.35098374,0.22771081,-0.046376053,0.6707944,0.47049075,0.0524205,0.10052123,0.8081647,0.037440512,-0.23961161,0.011636439,0.32687318,-0.2452484,-0.9099662,-0.42351046,0.045425035,821.978,798.20514,803.44324,809.0842,830.84247,-0.20501708984375,-0.05084228515625,0.98504638671875,2.22808837890625,-2.400054931640625,-3.745880126953125,1,1.0,1.0,1.0,1.0,50.00
2022-11-23 20:23:01.011,0.520769,0.50348574,0.4336018,0.70421475,0.35098374,0.22771081,-0.046376053,0.6707944,0.47049075,0.0524205,0.10052123,0.8081647,0.037440512,-0.23961161,0.011636439,0.32687318,-0.2452484,-0.9099662,-0.42351046,0.045425035,805.8608,795.38464,802.6374,793.7729,1100.403,-0.20501708984375,-0.05084228515625,0.98504638671875,2.22808837890625,-2.400054931640625,-3.745880126953125,1,1.0,1.0,1.0,1.0,50.00
2022-11-23 20:23:01.011,0.520769,0.50348574,0.4336018,0.70421475,0.35098374,0.22771081,-0.046376053,0.6707944,0.47049075,0.0524205,0.10052123,0.8081647,0.037440512,-0.23961161,0.011636439,0.32687318,-0.2452484,-0.9099662,-0.42351046,0.045425035,764.35895,799.81683,805.4579,769.19415,1027.4725,-0.20501708984375,-0.05084228515625,0.98504638671875,2.22808837890625,-2.400054931640625,-3.745880126953125,1,1.0,1.0,1.0,1.0,50.00
2022-11-23 20:23:01.012,0.520769,0.50348574,0.4336018,0.70421475,0.35098374,0.22771081,-0.046376053,0.6707944,0.47049075,0.0524205,0.10052123,0.8081647,0.037440512,-0.23961161,0.011636439,0.32687318,-0.2452484,-0.9099662,-0.42351046,0.045425035,780.07324,800.2198,806.26373,780.4762,790.9524,-0.20501708984375,-0.05084228515625,0.98504638671875,2.22808837890625,-2.400054931640625,-3.745880126953125,1,1.0,1.0,1.0,1.0,50.00
2022-11-23 20:23:01.012,0.520769,0.50348574,0.4336018,0.70421475,0.35098374,0.22771081,-0.046376053,0.6707944,0.47049075,0.0524205,0.10052123,0.8081647,0.037440512,-0.23961161,0.011636439,0.32687318,-0.2452484,-0.9099662,-0.42351046,0.045425035,821.5751,797.3993,804.2491,811.9048,906.99634,-0.20501708984375,-0.05084228515625,0.98504638671875,2.22808837890625,-2.400054931640625,-3.745880126953125,1,1.0,1.0,1.0,1.0,50.00
2022-11-23 20:23:01.012,0.520769,0.50348574,0.4336018,0.70421475,0.35098374,0.22771081,-0.046376053,0.6707944,0.47049075,0.0524205,0.10052123,0.8081647,0.037440512,-0.23961161,0.011636439,0.32687318,-0.2452484,-0.9099662,-0.42351046,0.045425035,819.15753,801.8315,801.4286,811.50183,877.98535,-0.20501708984375,-0.05084228515625,0.98504638671875,2.22808837890625,-2.400054931640625,-3.745880126953125,1,1.0,1.0,1.0,1.0,50.00
2022-11-23 20:23:01.012,0.520769,0.50348574,0.4336018,0.70421475,0.35098374,0.22771081,-0.046376053,0.6707944,0.47049075,0.0524205,0.10052123,0.8081647,0.037440512,-0.23961161,0.011636439,0.32687318,-0.2452484,-0.9099662,-0.42351046,0.045425035,788.1319,806.6667,803.8461,784.5055,628.1685,-0.20501708984375,-0.05084228515625,0.98504638671875,2.22808837890625,-2.400054931640625,-3.745880126953125,1,1.0,1.0,1.0,1.0,50.00
2022-11-23 20:23:01.060,0.520769,0.50348574,0.4336018,0.70421475,0.35098374,0.22771081,-0.046376053,0.6707944,0.47049075,0.0524205,0.10052123,0.8081647,0.037440512,-0.23961161,0.011636439,0.32687318,-0.2452484,-0.9099662,-0.42351046,0.045425035,778.86444,804.2491,804.2491,781.28204,556.4469,-0.18988037109375,-0.05224609375,1.0,4.104766845703125,-3.775787353515625,-4.14215087890625,1,1.0,1.0,1.0,1.0,50.00
2022-11-23 20:23:01.060,0.520769,0.50348574,0.4336018,0.70421475,0.35098374,0.22771081,-0.046376053,0.6707944,0.47049075,0.0524205,0.10052123,0.8081647,0.037440512,-0.23961161,0.011636439,0.32687318,-0.2452484,-0.9099662,-0.42351046,0.045425035,805.05493,801.8315,799.41394,812.3077,795.78754,-0.18988037109375,-0.05224609375,1.0,4.104766845703125,-3.775787353515625,-4.14215087890625,1,1.0,1.0,1.0,1.0,50.00
2022-11-23 20:23:01.061,0.520769,0.50348574,0.4336018,0.70421475,0.35098374,0.22771081,-0.046376053,0.6707944,0.47049075,0.0524205,0.10052123,0.8081647,0.037440512,-0.23961161,0.011636439,0.32687318,-0.2452484,-0.9099662,-0.42351046,0.045425035,819.15753,800.6227,797.8022,821.5751,898.93774,-0.18988037109375,-0.05224609375,1.0,4.104766845703125,-3.775787353515625,-4.14215087890625,1,1.0,1.0,1.0,1.0,50.00
2022-11-23 20:23:01.061,0.520769,0.50348574,0.4336018,0.70421475,0.35098374,0.22771081,-0.046376053,0.6707944,0.47049075,0.0524205,0.10052123,0.8081647,0.037440512,-0.23961161,0.011636439,0.32687318,-0.2452484,-0.9099662,-0.42351046,0.045425035,786.1172,802.23444,797.8022,787.326,694.65204,-0.18988037109375,-0.05224609375,1.0,4.104766845703125,-3.775787353515625,-4.14215087890625,1,1.0,1.0,1.0,1.0,50.00
2022-11-23 20:23:01.061,0.520769,0.50348574,0.4336018,0.70421475,0.35098374,0.22771081,-0.046376053,0.6707944,0.47049075,0.0524205,0.10052123,0.8081647,0.037440512,-0.23961161,0.011636439,0.32687318,-0.2452484,-0.9099662,-0.42351046,0.045425035,763.1502,803.8461,801.4286,775.2381,567.326,-0.18988037109375,-0.05224609375,1.0,4.104766845703125,-3.775787353515625,-4.14215087890625,1,1.0,1.0,1.0,1.0,50.00
2022-11-23 20:23:01.061,0.5329518,0.52931637,0.73579305,0.7248021,0.3664992,0.24855247,0.11965293,0.6995221,0.47049075,0.046643473,0.11334431,0.8081647,0.033120826,-0.24978541,-0.00787472,0.3281078,-0.27458155,-0.9087336,-0.42505217,0.057487518,788.93774,800.6227,803.8461,799.41394,786.9231,-0.18988037109375,-0.05224609375,1.0,4.104766845703125,-3.775787353515625,-4.14215087890625,1,1.0,1.0,1.0,1.0,50.00
2022-11-23 20:23:01.062,0.5329518,0.52931637,0.73579305,0.7248021,0.3664992,0.24855247,0.11965293,0.6995221,0.47049075,0.046643473,0.11334431,0.8081647,0.033120826,-0.24978541,-0.00787472,0.3281078,-0.27458155,-0.9087336,-0.42505217,0.057487518,817.1429,802.6374,802.6374,817.1429,935.2015,-0.18988037109375,-0.05224609375,1.0,4.104766845703125,-3.775787353515625,-4.14215087890625,1,1.0,1.0,1.0,1.0,50.00
2022-11-23 20:23:01.063,0.5329518,0.52931637,0.73579305,0.7248021,0.3664992,0.24855247,0.11965293,0.6995221,0.47049075,0.046643473,0.11334431,0.8081647,0.033120826,-0.24978541,-0.00787472,0.3281078,-0.27458155,-0.9087336,-0.42505217,0.057487518,790.54944,800.6227,801.8315,788.5348,801.02563,-0.18988037109375,-0.05224609375,1.0,4.104766845703125,-3.775787353515625,-4.14215087890625,1,1.0,1.0,1.0,1.0,50.00
2022-11-23 20:23:01.063,0.5329518,0.52931637,0.73579305,0.7248021,0.3664992,0.24855247,0.11965293,0.6995221,0.47049075,0.046643473,0.11334431,0.8081647,0.033120826,-0.24978541,-0.00787472,0.3281078,-0.27458155,-0.9087336,-0.42505217,0.057487518,755.4945,797.8022,800.6227,765.56775,597.1429,-0.18988037109375,-0.05224609375,1.0,4.104766845703125,-3.775787353515625,-4.14215087890625,1,1.0,1.0,1.0,1.0,50.00
2022-11-23 20:23:01.063,0.5329518,0.52931637,0.73579305,0.7248021,0.3664992,0.24855247,0.11965293,0.6995221,0.47049075,0.046643473,0.11334431,0.8081647,0.033120826,-0.24978541,-0.00787472,0.3281078,-0.27458155,-0.9087336,-0.42505217,0.057487518,781.28204,803.44324,805.4579,793.7729,743.4066,-0.18988037109375,-0.05224609375,1.0,4.104766845703125,-3.775787353515625,-4.14215087890625,1,1.0,1.0,1.0,1.0,50.00
2022-11-23 20:23:01.063,0.5329518,0.52931637,0.73579305,0.7248021,0.3664992,0.24855247,0.11965293,0.6995221,0.47049075,0.046643473,0.11334431,0.8081647,0.033120826,-0.24978541,-0.00787472,0.3281078,-0.27458155,-0.9087336,-0.42505217,0.057487518,823.1868,807.47253,810.293,823.5897,980.32965,-0.18988037109375,-0.05224609375,1.0,4.104766845703125,-3.775787353515625,-4.14215087890625,1,1.0,1.0,1.0,1.0,50.00
2022-11-23 20:23:01.064,0.5329518,0.52931637,0.73579305,0.7248021,0.3664992,0.24855247,0.11965293,0.6995221,0.47049075,0.046643473,0.11334431,0.8081647,0.033120826,-0.24978541,-0.00787472,0.3281078,-0.27458155,-0.9087336,-0.42505217,0.057487518,808.2784,809.0842,808.68134,803.8461,763.5531,-0.18988037109375,-0.05224609375,1.0,4.104766845703125,-3.775787353515625,-4.14215087890625,1,1.0,1.0,1.0,1.0,50.00
2022-11-23 20:23:01.110,0.5329518,0.52931637,0.73579305,0.7248021,0.3664992,0.24855247,0.11965293,0.6995221,0.47049075,0.046643473,0.11334431,0.8081647,0.033120826,-0.24978541,-0.00787472,0.3281078,-0.27458155,-0.9087336,-0.42505217,0.057487518,770.80585,809.4872,805.8608,772.8205,564.10254,-0.18988037109375,-0.05224609375,1.0,4.104766845703125,-3.775787353515625,-4.14215087890625,1,1.0,1.0,1.0,1.0,50.00
2022-11-23 20:23:01.111,0.5329518,0.52931637,0.73579305,0.7248021,0.3664992,0.24855247,0.11965293,0.6995221,0.47049075,0.046643473,0.11334431,0.8081647,0.033120826,-0.24978541,-0.00787472,0.3281078,-0.27458155,-0.9087336,-0.42505217,0.057487518,774.43225,805.8608,802.6374,776.8498,612.8571,-0.18988037109375,-0.05224609375,1.0,4.104766845703125,-3.775787353515625,-4.14215087890625,1,1.0,1.0,1.0,1.0,50.00
2022-11-23 20:23:01.111,0.5329518,0.52931637,0.73579305,0.7248021,0.3664992,0.24855247,0.11965293,0.6995221,0.47049075,0.046643473,0.11334431,0.8081647,0.033120826,-0.24978541,-0.00787472,0.3281078,-0.27458155,-0.9087336,-0.42505217,0.057487518,809.89014,804.2491,799.011,807.47253,788.5348,-0.18988037109375,-0.05224609375,1.0,4.104766845703125,-3.775787353515625,-4.14215087890625,1,1.0,1.0,1.0,1.0,50.00
2022-11-23 20:23:01.111,0.5329518,0.52931637,0.73579305,0.7248021,0.3664992,0.24855247,0.11965293,0.6995221,0.47049075,0.046643473,0.11334431,0.8081647,0.033120826,-0.24978541,-0.00787472,0.3281078,-0.27458155,-0.9087336,-0.42505217,0.057487518,812.71063,804.65204,794.9817,798.20514,789.34064,-0.18988037109375,-0.05224609375,1.0,4.104766845703125,-3.775787353515625,-4.14215087890625,1,1.0,1.0,1.0,1.0,50.00
2022-11-23 20:23:01.111,0.5329518,0.52931637,0.73579305,0.7248021,0.3664992,0.24855247,0.11965293,0.6995221,0.47049075,0.046643473,0.11334431,0.8081647,0.033120826,-0.24978541,-0.00787472,0.3281078,-0.27458155,-0.9087336,-0.42505217,0.057487518,768.3883,803.8461,794.9817,762.3443,676.9231,-0.18988037109375,-0.05224609375,1.0,4.104766845703125,-3.775787353515625,-4.14215087890625,1,1.0,1.0,1.0,1.0,50.00
2022-11-23 20:23:01.112,0.5329518,0.52931637,0.73579305,0.7248021,0.3664992,0.24855247,0.11965293,0.6995221,0.47049075,0.046643473,0.11334431,0.8081647,0.033120826,-0.24978541,-0.00787472,0.3281078,-0.27458155,-0.9087336,-0.42505217,0.057487518,754.68866,802.23444,798.20514,761.13556,847.76556,-0.18988037109375,-0.05224609375,1.0,4.104766845703125,-3.775787353515625,-4.14215087890625,1,1.0,1.0,1.0,1.0,50.00
2022-11-23 20:23:01.112,0.5329518,0.52931637,0.73579305,0.7248021,0.3664992,0.24855247,0.11965293,0.6995221,0.47049075,0.046643473,0.11334431,0.8081647,0.033120826,-0.24978541,-0.00787472,0.3281078,-0.27458155,-0.9087336,-0.42505217,0.057487518,791.75824,798.60803,798.20514,785.7143,995.64105,-0.18988037109375,-0.05224609375,1.0,4.104766845703125,-3.775787353515625,-4.14215087890625,1,1.0,1.0,1.0,1.0,50.00
2022-11-23 20:23:01.112,0.5329518,0.52931637,0.73579305,0.7248021,0.3664992,0.24855247,0.11965293,0.6995221,0.47049075,0.046643473,0.11334431,0.8081647,0.033120826,-0.24978541,-0.00787472,0.3281078,-0.27458155,-0.9087336,-0.42505217,0.057487518,813.91943,797.3993,794.17584,796.99634,899.34064,-0.18988037109375,-0.05224609375,1.0,4.104766845703125,-3.775787353515625,-4.14215087890625,1,1.0,1.0,1.0,1.0,50.00
2022-11-23 20:23:01.112,0.5329518,0.52931637,0.73579305,0.7248021,0.3664992,0.24855247,0.11965293,0.6995221,0.47049075,0.046643473,0.11334431,0.8081647,0.033120826,-0.24978541,-0.00787472,0.3281078,-0.27458155,-0.9087336,-0.42505217,0.057487518,783.2967,803.0403,794.57874,776.04395,759.5238,-0.18988037109375,-0.05224609375,1.0,4.104766845703125,-3.775787353515625,-4.14215087890625,1,1.0,1.0,1.0,1.0,50.00
2022-11-23 20:23:01.113,0.5329518,0.52931637,0.73579305,0.7248021,0.3664992,0.24855247,0.11965293,0.6995221,0.47049075,0.046643473,0.11334431,0.8081647,0.033120826,-0.24978541,-0.00787472,0.3281078,-0.27458155,-0.9087336,-0.42505217,0.057487518,753.47986,807.8755,800.2198,758.315,721.2454,-0.18988037109375,-0.05224609375,1.0,4.104766845703125,-3.775787353515625,-4.14215087890625,1,1.0,1.0,1.0,1.0,50.00
2022-11-23 20:23:01.113,0.5329518,0.52931637,0.73579305,0.7248021,0.3664992,0.24855247,0.11965293,0.6995221,0.47049075,0.046643473,0.11334431,0.8081647,0.033120826,-0.24978541,-0.00787472,0.3281078,-0.27458155,-0.9087336,-0.42505217,0.057487518,776.8498,808.68134,801.4286,781.28204,757.1062,-0.18988037109375,-0.05224609375,1.0,4.104766845703125,-3.775787353515625,-4.14215087890625,1,1.0,1.0,1.0,1.0,50.00
2022-11-23 20:23:01.113,0.5329518,0.52931637,0.73579305,0.7248021,0.3664992,0.24855247,0.11965293,0.6995221,0.47049075,0.046643473,0.11334431,0.8081647,0.033120826,-0.24978541,-0.00787472,0.3281078,-0.27458155,-0.9087336,-0.42505217,0.057487518,807.0696,805.8608,795.78754,807.8755,830.4396,-0.18988037109375,-0.05224609375,1.0,4.104766845703125,-3.775787353515625,-4.14215087890625,1,1.0,1.0,1.0,1.0,50.00
2022-11-23 20:23:01.135,0.5329518,0.52931637,0.73579305,0.7248021,0.3664992,0.24855247,0.11965293,0.6995221,0.47049075,0.046643473,0.11334431,0.8081647,0.033120826,-0.24978541,-0.00787472,0.3281078,-0.27458155,-0.9087336,-0.42505217,0.057487518,796.99634,805.4579,796.1905,793.36993,754.68866,-0.16522216796875,-0.03564453125,1.00555419921875,5.39825439453125,-3.895416259765625,-0.635528564453125,1,1.0,1.0,1.0,1.0,50.00
2022-11-23 20:23:01.135,0.5329518,0.52931637,0.73579305,0.7248021,0.3664992,0.24855247,0.11965293,0.6995221,0.47049075,0.046643473,0.11334431,0.8081647,0.033120826,-0.24978541,-0.00787472,0.3281078,-0.27458155,-0.9087336,-0.42505217,0.057487518,766.77655,805.4579,801.8315,777.25275,578.20514,-0.16522216796875,-0.03564453125,1.00555419921875,5.39825439453125,-3.895416259765625,-0.635528564453125,1,1.0,1.0,1.0,1.0,50.00
2022-11-23 20:23:01.136,0.5329518,0.52931637,0.73579305,0.7248021,0.3664992,0.24855247,0.11965293,0.6995221,0.47049075,0.046643473,0.11334431,0.8081647,0.033120826,-0.24978541,-0.00787472,0.3281078,-0.27458155,-0.9087336,-0.42505217,0.057487518,784.5055,803.0403,800.6227,792.96704,626.55676,-0.16522216796875,-0.03564453125,1.00555419921875,5.39825439453125,-3.895416259765625,-0.635528564453125,1,1.0,1.0,1.0,1.0,50.00
2022-11-23 20:23:01.136,0.5329518,0.52931637,0.73579305,0.7248021,0.3664992,0.24855247,0.11965293,0.6995221,0.47049075,0.046643473,0.11334431,0.8081647,0.033120826,-0.24978541,-0.00787472,0.3281078,-0.27458155,-0.9087336,-0.42505217,0.057487518,823.1868,805.05493,801.4286,813.5165,837.6923,-0.16522216796875,-0.03564453125,1.00555419921875,5.39825439453125,-3.895416259765625,-0.635528564453125,1,1.0,1.0,1.0,1.0,50.00
2022-11-23 20:23:01.136,0.5329518,0.52931637,0.73579305,0.7248021,0.3664992,0.24855247,0.11965293,0.6995221,0.47049075,0.046643473,0.11334431,0.8081647,0.033120826,-0.24978541,-0.00787472,0.3281078,-0.27458155,-0.9087336,-0.42505217,0.057487518,814.7253,806.6667,802.6374,805.8608,992.8205,-0.16522216796875,-0.03564453125,1.00555419921875,5.39825439453125,-3.895416259765625,-0.635528564453125,1,1.0,1.0,1.0,1.0,50.00
2022-11-23 20:23:01.136,0.5329518,0.52931637,0.73579305,0.7248021,0.3664992,0.24855247,0.11965293,0.6995221,0.47049075,0.046643473,0.11334431,0.8081647,0.033120826,-0.24978541,-0.00787472,0.3281078,-0.27458155,-0.9087336,-0.42505217,0.057487518,771.6117,805.8608,803.0403,779.2674,881.2088,-0.16522216796875,-0.03564453125,1.00555419921875,5.39825439453125,-3.895416259765625,-0.635528564453125,1,1.0,1.0,1.0,1.0,50.00
2022-11-23 20:23:01.137,0.5329518,0.52931637,0.73579305,0.7248021,0.3664992,0.24855247,0.11965293,0.6995221,0.47049075,0.046643473,0.11334431,0.8081647,0.033120826,-0.24978541,-0.00787472,0.3281078,-0.27458155,-0.9087336,-0.42505217,0.057487518,764.7619,801.8315,805.05493,782.49084,722.4542,-0.16522216796875,-0.03564453125,1.00555419921875,5.39825439453125,-3.895416259765625,-0.635528564453125,1,1.0,1.0,1.0,1.0,50.00
2022-11-23 20:23:01.137,0.5419015,0.5554136,0.95703775,0.7326034,0.38662678,0.26958382,0.2585919,0.72692454,0.47049075,0.041653898,0.11916736,0.8081647,0.032501437,-0.2540709,-0.029476529,0.32998568,-0.31412813,-0.91164136,-0.42780206,0.07131801,804.2491,797.8022,804.2491,810.696,819.5604,-0.16522216796875,-0.03564453125,1.00555419921875,5.39825439453125,-3.895416259765625,-0.635528564453125,1,1.0,1.0,1.0,1.0,50.00
2022-11-23 20:23:01.139,0.5419015,0.5554136,0.95703775,0.7326034,0.38662678,0.26958382,0.2585919,0.72692454,0.47049075,0.041653898,0.11916736,0.8081647,0.032501437,-0.2540709,-0.029476529,0.32998568,-0.31412813,-0.91164136,-0.42780206,0.07131801,812.71063,800.2198,803.0403,817.1429,1019.81683,-0.16522216796875,-0.03564453125,1.00555419921875,5.39825439453125,-3.895416259765625,-0.635528564453125,1,1.0,1.0,1.0,1.0,50.00
2022-11-23 20:23:01.139,0.5419015,0.5554136,0.95703775,0.7326034,0.38662678,0.26958382,0.2585919,0.72692454,0.47049075,0.041653898,0.11916736,0.8081647,0.032501437,-0.2540709,-0.029476529,0.32998568,-0.31412813,-0.91164136,-0.42780206,0.07131801,771.6117,802.6374,801.02563,788.5348,1086.7032,-0.16522216796875,-0.03564453125,1.00555419921875,5.39825439453125,-3.895416259765625,-0.635528564453125,1,1.0,1.0,1.0,1.0,50.00
2022-11-23 20:23:01.140,0.5419015,0.5554136,0.95703775,0.7326034,0.38662678,0.26958382,0.2585919,0.72692454,0.47049075,0.041653898,0.11916736,0.8081647,0.032501437,-0.2540709,-0.029476529,0.32998568,-0.31412813,-0.91164136,-0.42780206,0.07131801,754.68866,806.6667,803.44324,778.46155,766.3736,-0.16522216796875,-0.03564453125,1.00555419921875,5.39825439453125,-3.895416259765625,-0.635528564453125,1,1.0,1.0,1.0,1.0,50.00
2022-11-23 20:23:01.140,0.5419015,0.5554136,0.95703775,0.7326034,0.38662678,0.26958382,0.2585919,0.72692454,0.47049075,0.041653898,0.11916736,0.8081647,0.032501437,-0.2540709,-0.029476529,0.32998568,-0.31412813,-0.91164136,-0.42780206,0.07131801,792.1612,805.8608,805.8608,804.2491,693.0403,-0.16522216796875,-0.03564453125,1.00555419921875,5.39825439453125,-3.895416259765625,-0.635528564453125,1,1.0,1.0,1.0,1.0,50.00
2022-11-23 20:23:01.185,0.5419015,0.5554136,0.95703775,0.7326034,0.38662678,0.26958382,0.2585919,0.72692454,0.47049075,0.041653898,0.11916736,0.8081647,0.032501437,-0.2540709,-0.029476529,0.32998568,-0.31412813,-0.91164136,-0.42780206,0.07131801,815.9341,804.2491,805.05493,808.2784,868.315,-0.1759033203125,-0.03631591796875,1.0064697265625,3.5888671875,-2.639312744140625,2.100982666015625,1,1.0,1.0,1.0,1.0,50.00
2022-11-23 20:23:01.185,0.5419015,0.5554136,0.95703775,0.7326034,0.38662678,0.26958382,0.2585919,0.72692454,0.47049075,0.041653898,0.11916736,0.8081647,0.032501437,-0.2540709,-0.029476529,0.32998568,-0.31412813,-0.91164136,-0.42780206,0.07131801,785.7143,804.65204,804.65204,781.28204,826.0073,-0.1759033203125,-0.03631591796875,1.0064697265625,3.5888671875,-2.639312744140625,2.100982666015625,1,1.0,1.0,1.0,1.0,50.00
2022-11-23 20:23:01.186,0.5419015,0.5554136,0.95703775,0.7326034,0.38662678,0.26958382,0.2585919,0.72692454,0.47049075,0.041653898,0.11916736,0.8081647,0.032501437,-0.2540709,-0.029476529,0.32998568,-0.31412813,-0.91164136,-0.42780206,0.07131801,761.13556,804.65204,806.6667,768.7912,742.6007,-0.1759033203125,-0.03631591796875,1.0064697265625,3.5888671875,-2.639312744140625,2.100982666015625,1,1.0,1.0,1.0,1.0,50.00
2022-11-23 20:23:01.186,0.5419015,0.5554136,0.95703775,0.7326034,0.38662678,0.26958382,0.2585919,0.72692454,0.47049075,0.041653898,0.11916736,0.8081647,0.032501437,-0.2540709,-0.029476529,0.32998568,-0.31412813,-0.91164136,-0.42780206,0.07131801,787.326,803.8461,807.8755,788.93774,832.8571,-0.1759033203125,-0.03631591796875,1.0064697265625,3.5888671875,-2.639312744140625,2.100982666015625,1,1.0,1.0,1.0,1.0,50.00
2022-11-23 20:23:01.186,0.5419015,0.5554136,0.95703775,0.7326034,0.38662678,0.26958382,0.2585919,0.72692454,0.47049075,0.041653898,0.11916736,0.8081647,0.032501437,-0.2540709,-0.029476529,0.32998568,-0.31412813,-0.91164136,-0.42780206,0.07131801,821.978,803.8461,806.6667,814.7253,981.13556,-0.1759033203125,-0.03631591796875,1.0064697265625,3.5888671875,-2.639312744140625,2.100982666015625,1,1.0,1.0,1.0,1.0,50.00
2022-11-23 20:23:01.186,0.5419015,0.5554136,0.95703775,0.7326034,0.38662678,0.26958382,0.2585919,0.72692454,0.47049075,0.041653898,0.11916736,0.8081647,0.032501437,-0.2540709,-0.029476529,0.32998568,-0.31412813,-0.91164136,-0.42780206,0.07131801,808.2784,805.4579,808.68134,802.23444,947.6923,-0.1759033203125,-0.03631591796875,1.0064697265625,3.5888671875,-2.639312744140625,2.100982666015625,1,1.0,1.0,1.0,1.0,50.00
2022-11-23 20:23:01.187,0.5419015,0.5554136,0.95703775,0.7326034,0.38662678,0.26958382,0.2585919,0.72692454,0.47049075,0.041653898,0.11916736,0.8081647,0.032501437,-0.2540709,-0.029476529,0.32998568,-0.31412813,-0.91164136,-0.42780206,0.07131801,769.59705,803.0403,811.50183,778.86444,786.9231,-0.1759033203125,-0.03631591796875,1.0064697265625,3.5888671875,-2.639312744140625,2.100982666015625,1,1.0,1.0,1.0,1.0,50.00
2022-11-23 20:23:01.187,0.5419015,0.5554136,0.95703775,0.7326034,0.38662678,0.26958382,0.2585919,0.72692454,0.47049075,0.041653898,0.11916736,0.8081647,0.032501437,-0.2540709,-0.029476529,0.32998568,-0.31412813,-0.91164136,-0.42780206,0.07131801,778.86444,802.23444,812.3077,793.7729,761.53845,-0.1759033203125,-0.03631591796875,1.0064697265625,3.5888671875,-2.639312744140625,2.100982666015625,1,1.0,1.0,1.0,1.0,50.00
2022-11-23 20:23:01.187,0.5419015,0.5554136,0.95703775,0.7326034,0.38662678,0.26958382,0.2585919,0.72692454,0.47049075,0.041653898,0.11916736,0.8081647,0.032501437,-0.2540709,-0.029476529,0.32998568,-0.31412813,-0.91164136,-0.42780206,0.07131801,814.7253,804.2491,807.47253,818.3516,1076.63,-0.1759033203125,-0.03631591796875,1.0064697265625,3.5888671875,-2.639312744140625,2.100982666015625,1,1.0,1.0,1.0,1.0,50.00
2022-11-23 20:23:01.187,0.5419015,0.5554136,0.95703775,0.7326034,0.38662678,0.26958382,0.2585919,0.72692454,0.47049075,0.041653898,0.11916736,0.8081647,0.032501437,-0.2540709,-0.029476529,0.32998568,-0.31412813,-0.91164136,-0.42780206,0.07131801,812.71063,804.2491,800.6227,807.0696,1029.4872,-0.1759033203125,-0.03631591796875,1.0064697265625,3.5888671875,-2.639312744140625,2.100982666015625,1,1.0,1.0,1.0,1.0,50.00
2022-11-23 20:23:01.188,0.5419015,0.5554136,0.95703775,0.7326034,0.38662678,0.26958382,0.2585919,0.72692454,0.47049075,0.041653898,0.11916736,0.8081647,0.032501437,-0.2540709,-0.029476529,0.32998568,-0.31412813,-0.91164136,-0.42780206,0.07131801,782.8938,806.6667,802.23444,782.49084,658.7912,-0.1759033203125,-0.03631591796875,1.0064697265625,3.5888671875,-2.639312744140625,2.100982666015625,1,1.0,1.0,1.0,1.0,50.00
2022-11-23 20:23:01.188,0.5419015,0.5554136,0.95703775,0.7326034,0.38662678,0.26958382,0.2585919,0.72692454,0.47049075,0.041653898,0.11916736,0.8081647,0.032501437,-0.2540709,-0.029476529,0.32998568,-0.31412813,-0.91164136,-0.42780206,0.07131801,778.0586,810.293,805.4579,785.31134,653.5531,-0.1759033203125,-0.03631591796875,1.0064697265625,3.5888671875,-2.639312744140625,2.100982666015625,1,1.0,1.0,1.0,1.0,50.00
2022-11-23 20:23:01.235,0.5419015,0.5554136,0.95703775,0.7326034,0.38662678,0.26958382,0.2585919,0.72692454,0.47049075,0.041653898,0.11916736,0.8081647,0.032501437,-0.2540709,-0.029476529,0.32998568,-0.31412813,-0.91164136,-0.42780206,0.07131801,817.5458,810.293,805.8608,813.1135,877.98535,-0.18707275390625,-0.03668212890625,1.00244140625,3.887939453125,-0.85235595703125,-0.04486083984375,1,1.0,1.0,1.0,1.0,50.00
2022-11-23 20:23:01.235,0.5419015,0.5554136,0.95703775,0.7326034,0.38662678,0.26958382,0.2585919,0.72692454,0.47049075,0.041653898,0.11916736,0.8081647,0.032501437,-0.2540709,-0.029476529,0.32998568,-0.31412813,-0.91164136,-0.42780206,0.07131801,833.2601,808.68134,805.05493,821.1722,877.1795,-0.18707275390625,-0.03668212890625,1.00244140625,3.887939453125,-0.85235595703125,-0.04486083984375,1,1.0,1.0,1.0,1.0,50.00
2022-11-23 20:23:01.235,0.5419015,0.5554136,0.95703775,0.7326034,0.38662678,0.26958382,0.2585919,0.72692454,0.47049075,0.041653898,0.11916736,0.8081647,0.032501437,-0.2540709,-0.029476529,0.32998568,-0.31412813,-0.91164136,-0.42780206,0.07131801,793.36993,805.4579,803.8461,789.7436,703.1135,-0.18707275390625,-0.03668212890625,1.00244140625,3.887939453125,-0.85235595703125,-0.04486083984375,1,1.0,1.0,1.0,1.0,50.00
2022-11-23 20:23:01.236,0.5419015,0.5554136,0.95703775,0.7326034,0.38662678,0.26958382,0.2585919,0.72692454,0.47049075,0.041653898,0.11916736,0.8081647,0.032501437,-0.2540709,-0.029476529,0.32998568,-0.31412813,-0.91164136,-0.42780206,0.07131801,773.6264,805.05493,804.65204,778.86444,617.28937,-0.18707275390625,-0.03668212890625,1.00244140625,3.887939453125,-0.85235595703125,-0.04486083984375,1,1.0,1.0,1.0,1.0,50.00
2022-11-23 20:23:01.236,0.5419015,0.5554136,0.95703775,0.7326034,0.38662678,0.26958382,0.2585919,0.72692454,0.47049075,0.041653898,0.11916736,0.8081647,0.032501437,-0.2540709,-0.029476529,0.32998568,-0.31412813,-0.91164136,-0.42780206,0.07131801,807.47253,808.68134,805.8608,804.65204,699.89014,-0.18707275390625,-0.03668212890625,1.00244140625,3.887939453125,-0.85235595703125,-0.04486083984375,1,1.0,1.0,1.0,1.0,50.00
2022-11-23 20:23:01.236,0.5419015,0.5554136,0.95703775,0.7326034,0.38662678,0.26958382,0.2585919,0.72692454,0.47049075,0.041653898,0.11916736,0.8081647,0.032501437,-0.2540709,-0.029476529,0.32998568,-0.31412813,-0.91164136,-0.42780206,0.07131801,830.84247,806.26373,803.8461,824.3956,897.72894,-0.18707275390625,-0.03668212890625,1.00244140625,3.887939453125,-0.85235595703125,-0.04486083984375,1,1.0,1.0,1.0,1.0,50.00
2022-11-23 20:23:01.236,0.5419015,0.5554136,0.95703775,0.7326034,0.38662678,0.26958382,0.2585919,0.72692454,0.47049075,0.041653898,0.11916736,0.8081647,0.032501437,-0.2540709,-0.029476529,0.32998568,-0.31412813,-0.91164136,-0.42780206,0.07131801,805.4579,805.05493,801.4286,805.4579,796.99634,-0.18707275390625,-0.03668212890625,1.00244140625,3.887939453125,-0.85235595703125,-0.04486083984375,1,1.0,1.0,1.0,1.0,50.00
2022-11-23 20:23:01.237,0.5419015,0.5554136,0.95703775,0.7326034,0.38662678,0.26958382,0.2585919,0.72692454,0.47049075,0.041653898,0.11916736,0.8081647,0.032501437,-0.2540709,-0.029476529,0.32998568,-0.31412813,-0.91164136,-0.42780206,0.07131801,779.67035,805.4579,799.81683,788.1319,703.1135,-0.18707275390625,-0.03668212890625,1.00244140625,3.887939453125,-0.85235595703125,-0.04486083984375,1,1.0,1.0,1.0,1.0,50.00
2022-11-23 20:23:01.237,0.5419015,0.5554136,0.95703775,0.7326034,0.38662678,0.26958382,0.2585919,0.72692454,0.47049075,0.041653898,0.11916736,0.8081647,0.032501437,-0.2540709,-0.029476529,0.32998568,-0.31412813,-0.91164136,-0.42780206,0.07131801,803.8461,807.8755,800.2198,808.2784,868.315,-0.18707275390625,-0.03668212890625,1.00244140625,3.887939453125,-0.85235595703125,-0.04486083984375,1,1.0,1.0,1.0,1.0,50.00
2022-11-23 20:23:01.237,0.547974,0.5839356,0.98564136,0.70939714,0.39210975,0.2907855,0.28060657,0.74028707,0.47049075,0.039970115,0.10765125,0.8081647,0.024880359,-0.2499615,-0.04700584,0.3259862,-0.35710716,-0.9213749,-0.43296966,0.08460088,836.08057,810.696,802.23444,819.9634,840.10986,-0.18707275390625,-0.03668212890625,1.00244140625,3.887939453125,-0.85235595703125,-0.04486083984375,1,1.0,1.0,1.0,1.0,50.00
2022-11-23 20:23:01.238,0.547974,0.5839356,0.98564136,0.70939714,0.39210975,0.2907855,0.28060657,0.74028707,0.47049075,0.039970115,0.10765125,0.8081647,0.024880359,-0.2499615,-0.04700584,0.3259862,-0.35710716,-0.9213749,-0.43296966,0.08460088,816.337,806.26373,806.6667,802.6374,734.5421,-0.18707275390625,-0.03668212890625,1.00244140625,3.887939453125,-0.85235595703125,-0.04486083984375,1,1.0,1.0,1.0,1.0,50.00
2022-11-23 20:23:01.239,0.547974,0.5839356,0.98564136,0.70939714,0.39210975,0.2907855,0.28060657,0.74028707,0.47049075,0.039970115,0.10765125,0.8081647,0.024880359,-0.2499615,-0.04700584,0.3259862,-0.35710716,-0.9213749,-0.43296966,0.08460088,780.4762,801.8315,808.68134,777.25275,599.9634,-0.18707275390625,-0.03668212890625,1.00244140625,3.887939453125,-0.85235595703125,-0.04486083984375,1,1.0,1.0,1.0,1.0,50.00
2022-11-23 20:23:01.285,0.547974,0.5839356,0.98564136,0.70939714,0.39210975,0.2907855,0.28060657,0.74028707,0.47049075,0.039970115,0.10765125,0.8081647,0.024880359,-0.2499615,-0.04700584,0.3259862,-0.35710716,-0.9213749,-0.43296966,0.08460088,793.7729,807.0696,807.47253,783.69965,612.0513,-0.18353271484375,-0.03717041015625,1.00189208984375,3.18511962890625,-0.441131591796875,-2.49725341796875,1,1.0,1.0,1.0,1.0,50.00
2022-11-23 20:23:01.286,0.547974,0.5839356,0.98564136,0.70939714,0.39210975,0.2907855,0.28060657,0.74028707,0.47049075,0.039970115,0.10765125,0.8081647,0.024880359,-0.2499615,-0.04700584,0.3259862,-0.35710716,-0.9213749,-0.43296966,0.08460088,832.8571,813.1135,808.2784,810.293,786.52014,-0.18353271484375,-0.03717041015625,1.00189208984375,3.18511962890625,-0.441131591796875,-2.49725341796875,1,1.0,1.0,1.0,1.0,50.00
2022-11-23 20:23:01.286,0.547974,0.5839356,0.98564136,0.70939714,0.39210975,0.2907855,0.28060657,0.74028707,0.47049075,0.039970115,0.10765125,0.8081647,0.024880359,-0.2499615,-0.04700584,0.3259862,-0.35710716,-0.9213749,-0.43296966,0.08460088,826.4103,813.1135,806.26373,811.0989,820.7692,-0.18353271484375,-0.03717041015625,1.00189208984375,3.18511962890625,-0.441131591796875,-2.49725341796875,1,1.0,1.0,1.0,1.0,50.00
2022-11-23 20:23:01.286,0.547974,0.5839356,0.98564136,0.70939714,0.39210975,0.2907855,0.28060657,0.74028707,0.47049075,0.039970115,0.10765125,0.8081647,0.024880359,-0.2499615,-0.04700584,0.3259862,-0.35710716,-0.9213749,-0.43296966,0.08460088,783.2967,811.0989,805.8608,780.07324,726.08057,-0.18353271484375,-0.03717041015625,1.00189208984375,3.18511962890625,-0.441131591796875,-2.49725341796875,1,1.0,1.0,1.0,1.0,50.00
2022-11-23 20:23:01.287,0.547974,0.5839356,0.98564136,0.70939714,0.39210975,0.2907855,0.28060657,0.74028707,0.47049075,0.039970115,0.10765125,0.8081647,0.024880359,-0.2499615,-0.04700584,0.3259862,-0.35710716,-0.9213749,-0.43296966,0.08460088,781.28204,808.68134,804.65204,778.0586,697.8755,-0.18353271484375,-0.03717041015625,1.00189208984375,3.18511962890625,-0.441131591796875,-2.49725341796875,1,1.0,1.0,1.0,1.0,50.00
2022-11-23 20:23:01.287,0.547974,0.5839356,0.98564136,0.70939714,0.39210975,0.2907855,0.28060657,0.74028707,0.47049075,0.039970115,0.10765125,0.8081647,0.024880359,-0.2499615,-0.04700584,0.3259862,-0.35710716,-0.9213749,-0.43296966,0.08460088,817.9487,805.8608,803.44324,807.8755,838.49817,-0.18353271484375,-0.03717041015625,1.00189208984375,3.18511962890625,-0.441131591796875,-2.49725341796875,1,1.0,1.0,1.0,1.0,50.00
2022-11-23 20:23:01.287,0.547974,0.5839356,0.98564136,0.70939714,0.39210975,0.2907855,0.28060657,0.74028707,0.47049075,0.039970115,0.10765125,0.8081647,0.024880359,-0.2499615,-0.04700584,0.3259862,-0.35710716,-0.9213749,-0.43296966,0.08460088,826.0073,803.8461,804.2491,808.2784,910.6227,-0.18353271484375,-0.03717041015625,1.00189208984375,3.18511962890625,-0.441131591796875,-2.49725341796875,1,1.0,1.0,1.0,1.0,50.00
2022-11-23 20:23:01.287,0.547974,0.5839356,0.98564136,0.70939714,0.39210975,0.2907855,0.28060657,0.74028707,0.47049075,0.039970115,0.10765125,0.8081647,0.024880359,-0.2499615,-0.04700584,0.3259862,-0.35710716,-0.9213749,-0.43296966,0.08460088,793.36993,805.4579,801.8315,792.5641,917.0696,-0.18353271484375,-0.03717041015625,1.00189208984375,3.18511962890625,-0.441131591796875,-2.49725341796875,1,1.0,1.0,1.0,1.0,50.00
2022-11-23 20:23:01.288,0.547974,0.5839356,0.98564136,0.70939714,0.39210975,0.2907855,0.28060657,0.74028707,0.47049075,0.039970115,0.10765125,0.8081647,0.024880359,-0.2499615,-0.04700584,0.3259862,-0.35710716,-0.9213749,-0.43296966,0.08460088,776.8498,809.0842,801.8315,790.14655,790.14655,-0.18353271484375,-0.03717041015625,1.00189208984375,3.18511962890625,-0.441131591796875,-2.49725341796875,1,1.0,1.0,1.0,1.0,50.00
2022-11-23 20:23:01.288,0.547974,0.5839356,0.98564136,0.70939714,0.39210975,0.2907855,0.28060657,0.74028707,0.47049075,0.039970115,0.10765125,0.8081647,0.024880359,-0.2499615,-0.04700584,0.3259862,-0.35710716,-0.9213749,-0.43296966,0.08460088,815.12823,809.89014,802.23444,809.89014,690.6227,-0.18353271484375,-0.03717041015625,1.00189208984375,3.18511962890625,-0.441131591796875,-2.49725341796875,1,1.0,1.0,1.0,1.0,50.00
2022-11-23 20:23:01.288,0.547974,0.5839356,0.98564136,0.70939714,0.39210975,0.2907855,0.28060657,0.74028707,0.47049075,0.039970115,0.10765125,0.8081647,0.024880359,-0.2499615,-0.04700584,0.3259862,-0.35710716,-0.9213749,-0.43296966,0.08460088,840.9158,807.0696,802.23444,820.3663,797.3993,-0.18353271484375,-0.03717041015625,1.00189208984375,3.18511962890625,-0.441131591796875,-2.49725341796875,1,1.0,1.0,1.0,1.0,50.00
2022-11-23 20:23:01.288,0.547974,0.5839356,0.98564136,0.70939714,0.39210975,0.2907855,0.28060657,0.74028707,0.47049075,0.039970115,0.10765125,0.8081647,0.024880359,-0.2499615,-0.04700584,0.3259862,-0.35710716,-0.9213749,-0.43296966,0.08460088,810.696,805.05493,802.23444,801.02563,826.8132,-0.18353271484375,-0.03717041015625,1.00189208984375,3.18511962890625,-0.441131591796875,-2.49725341796875,1,1.0,1.0,1.0,1.0,50.00
2022-11-23 20:23:01.335,0.547974,0.5839356,0.98564136,0.70939714,0.39210975,0.2907855,0.28060657,0.74028707,0.47049075,0.039970115,0.10765125,0.8081647,0.024880359,-0.2499615,-0.04700584,0.3259862,-0.35710716,-0.9213749,-0.43296966,0.08460088,778.86444,805.4579,800.2198,787.72894,718.022,-0.18353271484375,-0.03717041015625,1.00189208984375,3.18511962890625,-0.441131591796875,-2.49725341796875,1,1.0,1.0,1.0,1.0,50.00
2022-11-23 20:23:01.335,0.547974,0.5839356,0.98564136,0.70939714,0.39210975,0.2907855,0.28060657,0.74028707,0.47049075,0.039970115,0.10765125,0.8081647,0.024880359,-0.2499615,-0.04700584,0.3259862,-0.35710716,-0.9213749,-0.43296966,0.08460088,798.60803,803.8461,803.8461,809.89014,726.8865,-0.18353271484375,-0.03717041015625,1.00189208984375,3.18511962890625,-0.441131591796875,-2.49725341796875,1,1.0,1.0,1.0,1.0,50.00
2022-11-23 20:23:01.336,0.547974,0.5839356,0.98564136,0.70939714,0.39210975,0.2907855,0.28060657,0.74028707,0.47049075,0.039970115,0.10765125,0.8081647,0.024880359,-0.2499615,-0.04700584,0.3259862,-0.35710716,-0.9213749,-0.43296966,0.08460088,834.4689,802.23444,805.8608,827.619,869.92676,-0.18353271484375,-0.03717041015625,1.00189208984375,3.18511962890625,-0.441131591796875,-2.49725341796875,1,1.0,1.0,1.0,1.0,50.00
2022-11-23 20:23:01.336,0.547974,0.5839356,0.98564136,0.70939714,0.39210975,0.2907855,0.28060657,0.74028707,0.47049075,0.039970115,0.10765125,0.8081647,0.024880359,-0.2499615,-0.04700584,0.3259862,-0.35710716,-0.9213749,-0.43296966,0.08460088,815.5311,798.60803,800.6227,809.4872,857.8388,-0.18353271484375,-0.03717041015625,1.00189208984375,3.18511962890625,-0.441131591796875,-2.49725341796875,1,1.0,1.0,1.0,1.0,50.00
2022-11-23 20:23:01.336,0.547974,0.5839356,0.98564136,0.70939714,0.39210975,0.2907855,0.28060657,0.74028707,0.47049075,0.039970115,0.10765125,0.8081647,0.024880359,-0.2499615,-0.04700584,0.3259862,-0.35710716,-0.9213749,-0.43296966,0.08460088,770.80585,796.5934,797.3993,788.93774,740.989,-0.18353271484375,-0.03717041015625,1.00189208984375,3.18511962890625,-0.441131591796875,-2.49725341796875,1,1.0,1.0,1.0,1.0,50.00
2022-11-23 20:23:01.336,0.547974,0.5839356,0.98564136,0.70939714,0.39210975,0.2907855,0.28060657,0.74028707,0.47049075,0.039970115,0.10765125,0.8081647,0.024880359,-0.2499615,-0.04700584,0.3259862,-0.35710716,-0.9213749,-0.43296966,0.08460088,781.28204,796.1905,802.23444,797.8022,693.8461,-0.18353271484375,-0.03717041015625,1.00189208984375,3.18511962890625,-0.441131591796875,-2.49725341796875,1,1.0,1.0,1.0,1.0,50.00
2022-11-23 20:23:01.336,0.547974,0.5839356,0.98564136,0.70939714,0.39210975,0.2907855,0.28060657,0.74028707,0.47049075,0.039970115,0.10765125,0.8081647,0.024880359,-0.2499615,-0.04700584,0.3259862,-0.35710716,-0.9213749,-0.43296966,0.08460088,821.5751,800.2198,807.8755,827.2161,925.5311,-0.18353271484375,-0.03717041015625,1.00189208984375,3.18511962890625,-0.441131591796875,-2.49725341796875,1,1.0,1.0,1.0,1.0,50.00
2022-11-23 20:23:01.337,0.547974,0.5839356,0.98564136,0.70939714,0.39210975,0.2907855,0.28060657,0.74028707,0.47049075,0.039970115,0.10765125,0.8081647,0.024880359,-0.2499615,-0.04700584,0.3259862,-0.35710716,-0.9213749,-0.43296966,0.08460088,824.3956,804.65204,809.89014,826.4103,1155.6044,-0.18353271484375,-0.03717041015625,1.00189208984375,3.18511962890625,-0.441131591796875,-2.49725341796875,1,1.0,1.0,1.0,1.0,50.00
