TimeStamp,Delta_TP9,Delta_AF7,Delta_AF8,Delta_TP10,Theta_TP9,Theta_AF7,Theta_AF8,Theta_TP10,Alpha_TP9,Alpha_AF7,Alpha_AF8,Alpha_TP10,Beta_TP9,Beta_AF7,Beta_AF8,Beta_TP10,Gamma_TP9,Gamma_AF7,Gamma_AF8,Gamma_TP10,RAW_TP9,RAW_AF7,RAW_AF8,RAW_TP10,AUX_RIGHT,Accelerometer_X,Accelerometer_Y,Accelerometer_Z,Gyro_X,Gyro_Y,Gyro_Z,HeadBandOn,HSI_TP9,HSI_AF7,HSI_AF8,HSI_TP10,Battery,Elements
2022-11-23 20:24:31.667,0.9606009,0.4166641,0.32652786,1.0788579,1.1136624,0.6697121,0.45402065,1.0752988,0.9385535,0.28828844,0.0777128,0.8466517,0.2576186,-0.14567442,-0.14541058,0.11614236,-0.30905733,-0.53922033,-0.44176984,-0.037883747,805.05493,809.4872,805.4579,807.47253,673.69965,-0.2064208984375,-0.00433349609375,0.99932861328125,3.4991455078125,-1.742095947265625,-0.515899658203125,1,1.0,1.0,1.0,1.0,50.00
2022-11-23 20:24:31.668,0.9496281,0.40845516,0.31830582,1.0753846,1.1178961,0.66710055,0.45694184,1.0468396,0.9385535,0.28828844,0.08496902,0.8470308,0.24036281,-0.13534929,-0.15791173,0.10887315,-0.31294462,-0.5519128,-0.4721459,-0.03649428,837.28937,811.50183,804.65204,832.8571,857.4359,-0.2064208984375,-0.00433349609375,0.99932861328125,3.4991455078125,-1.742095947265625,-0.515899658203125,1,1.0,1.0,1.0,1.0,50.00
2022-11-23 20:24:31.669,0.9496281,0.40845516,0.31830582,1.0753846,1.1178961,0.66710055,0.45694184,1.0468396,0.9385535,0.28828844,0.08496902,0.8470308,0.24036281,-0.13534929,-0.15791173,0.10887315,-0.31294462,-0.5519128,-0.4721459,-0.03649428,815.9341,813.1135,808.68134,811.50183,812.3077,-0.2064208984375,-0.00433349609375,0.99932861328125,3.4991455078125,-1.742095947265625,-0.515899658203125,1,1.0,1.0,1.0,1.0,50.00
2022-11-23 20:24:31.669,0.9496281,0.40845516,0.31830582,1.0753846,1.1178961,0.66710055,0.45694184,1.0468396,0.9385535,0.28828844,0.08496902,0.8470308,0.24036281,-0.13534929,-0.15791173,0.10887315,-0.31294462,-0.5519128,-0.4721459,-0.03649428,772.4176,811.50183,807.47253,777.6557,606.8132,-0.2064208984375,-0.00433349609375,0.99932861328125,3.4991455078125,-1.742095947265625,-0.515899658203125,1,1.0,1.0,1.0,1.0,50.00
2022-11-23 20:24:31.670,0.9496281,0.40845516,0.31830582,1.0753846,1.1178961,0.66710055,0.45694184,1.0468396,0.9385535,0.28828844,0.08496902,0.8470308,0.24036281,-0.13534929,-0.15791173,0.10887315,-0.31294462,-0.5519128,-0.4721459,-0.03649428,786.1172,807.8755,804.2491,789.7436,622.52747,-0.2064208984375,-0.00433349609375,0.99932861328125,3.4991455078125,-1.742095947265625,-0.515899658203125,1,1.0,1.0,1.0,1.0,50.00
2022-11-23 20:24:31.670,0.9496281,0.40845516,0.31830582,1.0753846,1.1178961,0.66710055,0.45694184,1.0468396,0.9385535,0.28828844,0.08496902,0.8470308,0.24036281,-0.13534929,-0.15791173,0.10887315,-0.31294462,-0.5519128,-0.4721459,-0.03649428,832.8571,806.6667,802.23444,824.7985,970.65936,-0.2064208984375,-0.00433349609375,0.99932861328125,3.4991455078125,-1.742095947265625,-0.515899658203125,1,1.0,1.0,1.0,1.0,50.00
2022-11-23 20:24:31.670,0.9496281,0.40845516,0.31830582,1.0753846,1.1178961,0.66710055,0.45694184,1.0468396,0.9385535,0.28828844,0.08496902,0.8470308,0.24036281,-0.13534929,-0.15791173,0.10887315,-0.31294462,-0.5519128,-0.4721459,-0.03649428,827.619,804.65204,800.6227,808.68134,1048.022,-0.2064208984375,-0.00433349609375,0.99932861328125,3.4991455078125,-1.742095947265625,-0.515899658203125,1,1.0,1.0,1.0,1.0,50.00
2022-11-23 20:24:31.671,0.9496281,0.40845516,0.31830582,1.0753846,1.1178961,0.66710055,0.45694184,1.0468396,0.9385535,0.28828844,0.08496902,0.8470308,0.24036281,-0.13534929,-0.15791173,0.10887315,-0.31294462,-0.5519128,-0.4721459,-0.03649428,786.1172,801.8315,797.8022,770.80585,687.8022,-0.2064208984375,-0.00433349609375,0.99932861328125,3.4991455078125,-1.742095947265625,-0.515899658203125,1,1.0,1.0,1.0,1.0,50.00
2022-11-23 20:24:31.671,0.9496281,0.40845516,0.31830582,1.0753846,1.1178961,0.66710055,0.45694184,1.0468396,0.9385535,0.28828844,0.08496902,0.8470308,0.24036281,-0.13534929,-0.15791173,0.10887315,-0.31294462,-0.5519128,-0.4721459,-0.03649428,780.07324,806.6667,803.0403,774.43225,581.8315,-0.2064208984375,-0.00433349609375,0.99932861328125,3.4991455078125,-1.742095947265625,-0.515899658203125,1,1.0,1.0,1.0,1.0,50.00
2022-11-23 20:24:31.671,0.9496281,0.40845516,0.31830582,1.0753846,1.1178961,0.66710055,0.45694184,1.0468396,0.9385535,0.28828844,0.08496902,0.8470308,0.24036281,-0.13534929,-0.15791173,0.10887315,-0.31294462,-0.5519128,-0.4721459,-0.03649428,817.1429,806.26373,803.44324,805.05493,1086.7032,-0.2064208984375,-0.00433349609375,0.99932861328125,3.4991455078125,-1.742095947265625,-0.515899658203125,1,1.0,1.0,1.0,1.0,50.00
2022-11-23 20:24:31.672,0.9496281,0.40845516,0.31830582,1.0753846,1.1178961,0.66710055,0.45694184,1.0468396,0.9385535,0.28828844,0.08496902,0.8470308,0.24036281,-0.13534929,-0.15791173,0.10887315,-0.31294462,-0.5519128,-0.4721459,-0.03649428,824.7985,803.8461,806.6667,817.5458,1294.2124,-0.2064208984375,-0.00433349609375,0.99932861328125,3.4991455078125,-1.742095947265625,-0.515899658203125,1,1.0,1.0,1.0,1.0,50.00
2022-11-23 20:24:31.672,0.9496281,0.40845516,0.31830582,1.0753846,1.1178961,0.66710055,0.45694184,1.0468396,0.9385535,0.28828844,0.08496902,0.8470308,0.24036281,-0.13534929,-0.15791173,0.10887315,-0.31294462,-0.5519128,-0.4721459,-0.03649428,785.31134,805.4579,806.26373,783.69965,892.0879,-0.2064208984375,-0.00433349609375,0.99932861328125,3.4991455078125,-1.742095947265625,-0.515899658203125,1,1.0,1.0,1.0,1.0,50.00
2022-11-23 20:24:31.696,0.9496281,0.40845516,0.31830582,1.0753846,1.1178961,0.66710055,0.45694184,1.0468396,0.9385535,0.28828844,0.08496902,0.8470308,0.24036281,-0.13534929,-0.15791173,0.10887315,-0.31294462,-0.5519128,-0.4721459,-0.03649428,768.3883,805.8608,798.20514,764.35895,666.04395,-0.204833984375,-0.00482177734375,0.9794921875,3.39447021484375,-0.9271240234375,-0.575714111328125,1,1.0,1.0,1.0,1.0,50.00
2022-11-23 20:24:31.697,0.9496281,0.40845516,0.31830582,1.0753846,1.1178961,0.66710055,0.45694184,1.0468396,0.9385535,0.28828844,0.08496902,0.8470308,0.24036281,-0.13534929,-0.15791173,0.10887315,-0.31294462,-0.5519128,-0.4721459,-0.03649428,800.6227,801.4286,798.60803,794.57874,697.47253,-0.204833984375,-0.00482177734375,0.9794921875,3.39447021484375,-0.9271240234375,-0.575714111328125,1,1.0,1.0,1.0,1.0,50.00
2022-11-23 20:24:31.697,0.9496281,0.40845516,0.31830582,1.0753846,1.1178961,0.66710055,0.45694184,1.0468396,0.9385535,0.28828844,0.08496902,0.8470308,0.24036281,-0.13534929,-0.15791173,0.10887315,-0.31294462,-0.5519128,-0.4721459,-0.03649428,828.022,801.02563,795.38464,821.978,928.7546,-0.204833984375,-0.00482177734375,0.9794921875,3.39447021484375,-0.9271240234375,-0.575714111328125,1,1.0,1.0,1.0,1.0,50.00
2022-11-23 20:24:31.698,0.9496281,0.40845516,0.31830582,1.0753846,1.1178961,0.66710055,0.45694184,1.0468396,0.9385535,0.28828844,0.08496902,0.8470308,0.24036281,-0.13534929,-0.15791173,0.10887315,-0.31294462,-0.5519128,-0.4721459,-0.03649428,799.41394,801.4286,792.96704,798.60803,906.1905,-0.204833984375,-0.00482177734375,0.9794921875,3.39447021484375,-0.9271240234375,-0.575714111328125,1,1.0,1.0,1.0,1.0,50.00
2022-11-23 20:24:31.698,0.9496281,0.40845516,0.31830582,1.0753846,1.1178961,0.66710055,0.45694184,1.0468396,0.9385535,0.28828844,0.08496902,0.8470308,0.24036281,-0.13534929,-0.15791173,0.10887315,-0.31294462,-0.5519128,-0.4721459,-0.03649428,765.56775,798.60803,797.8022,778.46155,733.73627,-0.204833984375,-0.00482177734375,0.9794921875,3.39447021484375,-0.9271240234375,-0.575714111328125,1,1.0,1.0,1.0,1.0,50.00
2022-11-23 20:24:31.698,0.9496281,0.40845516,0.31830582,1.0753846,1.1178961,0.66710055,0.45694184,1.0468396,0.9385535,0.28828844,0.08496902,0.8470308,0.24036281,-0.13534929,-0.15791173,0.10887315,-0.31294462,-0.5519128,-0.4721459,-0.03649428,790.9524,802.23444,798.20514,794.9817,940.0366,-0.204833984375,-0.00482177734375,0.9794921875,3.39447021484375,-0.9271240234375,-0.575714111328125,1,1.0,1.0,1.0,1.0,50.00
2022-11-23 20:24:31.698,0.9496281,0.40845516,0.31830582,1.0753846,1.1178961,0.66710055,0.45694184,1.0468396,0.9385535,0.28828844,0.08496902,0.8470308,0.24036281,-0.13534929,-0.15791173,0.10887315,-0.31294462,-0.5519128,-0.4721459,-0.03649428,818.7546,800.2198,795.78754,807.47253,1073.0037,-0.204833984375,-0.00482177734375,0.9794921875,3.39447021484375,-0.9271240234375,-0.575714111328125,1,1.0,1.0,1.0,1.0,50.00
2022-11-23 20:24:31.699,0.9496281,0.40845516,0.31830582,1.0753846,1.1178961,0.66710055,0.45694184,1.0468396,0.9385535,0.28828844,0.08496902,0.8470308,0.24036281,-0.13534929,-0.15791173,0.10887315,-0.31294462,-0.5519128,-0.4721459,-0.03649428,796.5934,794.17584,796.5934,790.54944,913.8461,-0.204833984375,-0.00482177734375,0.9794921875,3.39447021484375,-0.9271240234375,-0.575714111328125,1,1.0,1.0,1.0,1.0,50.00
2022-11-23 20:24:31.699,0.9496281,0.40845516,0.31830582,1.0753846,1.1178961,0.66710055,0.45694184,1.0468396,0.9385535,0.28828844,0.08496902,0.8470308,0.24036281,-0.13534929,-0.15791173,0.10887315,-0.31294462,-0.5519128,-0.4721459,-0.03649428,765.56775,793.7729,798.60803,778.86444,758.315,-0.204833984375,-0.00482177734375,0.9794921875,3.39447021484375,-0.9271240234375,-0.575714111328125,1,1.0,1.0,1.0,1.0,50.00
2022-11-23 20:24:31.699,0.9496281,0.40845516,0.31830582,1.0753846,1.1178961,0.66710055,0.45694184,1.0468396,0.9385535,0.28828844,0.08496902,0.8470308,0.24036281,-0.13534929,-0.15791173,0.10887315,-0.31294462,-0.5519128,-0.4721459,-0.03649428,778.86444,794.57874,800.2198,796.5934,933.1868,-0.204833984375,-0.00482177734375,0.9794921875,3.39447021484375,-0.9271240234375,-0.575714111328125,1,1.0,1.0,1.0,1.0,50.00
2022-11-23 20:24:31.700,0.9496281,0.40845516,0.31830582,1.0753846,1.1178961,0.66710055,0.45694184,1.0468396,0.9385535,0.28828844,0.08496902,0.8470308,0.24036281,-0.13534929,-0.15791173,0.10887315,-0.31294462,-0.5519128,-0.4721459,-0.03649428,821.978,799.011,801.02563,823.9927,1013.36993,-0.204833984375,-0.00482177734375,0.9794921875,3.39447021484375,-0.9271240234375,-0.575714111328125,1,1.0,1.0,1.0,1.0,50.00
2022-11-23 20:24:31.700,0.9496281,0.40845516,0.31830582,1.0753846,1.1178961,0.66710055,0.45694184,1.0468396,0.9385535,0.28828844,0.08496902,0.8470308,0.24036281,-0.13534929,-0.15791173,0.10887315,-0.31294462,-0.5519128,-0.4721459,-0.03649428,825.2015,802.23444,798.60803,817.9487,855.42126,-0.204833984375,-0.00482177734375,0.9794921875,3.39447021484375,-0.9271240234375,-0.575714111328125,1,1.0,1.0,1.0,1.0,50.00
2022-11-23 20:24:31.742,0.9496281,0.40845516,0.31830582,1.0753846,1.1178961,0.66710055,0.45694184,1.0468396,0.9385535,0.28828844,0.08496902,0.8470308,0.24036281,-0.13534929,-0.15791173,0.10887315,-0.31294462,-0.5519128,-0.4721459,-0.03649428,785.7143,801.02563,799.41394,784.10254,840.5128,-0.213134765625,-0.001708984375,1.0018310546875,3.81317138671875,-0.530853271484375,0.179443359375,1,1.0,1.0,1.0,1.0,50.00
2022-11-23 20:24:31.742,0.9496281,0.40845516,0.31830582,1.0753846,1.1178961,0.66710055,0.45694184,1.0468396,0.9385535,0.28828844,0.08496902,0.8470308,0.24036281,-0.13534929,-0.15791173,0.10887315,-0.31294462,-0.5519128,-0.4721459,-0.03649428,776.04395,799.41394,801.8315,788.5348,746.2271,-0.213134765625,-0.001708984375,1.0018310546875,3.81317138671875,-0.530853271484375,0.179443359375,1,1.0,1.0,1.0,1.0,50.00
2022-11-23 20:24:31.743,0.9496281,0.40845516,0.31830582,1.0753846,1.1178961,0.66710055,0.45694184,1.0468396,0.9385535,0.28828844,0.08496902,0.8470308,0.24036281,-0.13534929,-0.15791173,0.10887315,-0.31294462,-0.5519128,-0.4721459,-0.03649428,819.15753,797.3993,803.0403,821.978,684.57874,-0.213134765625,-0.001708984375,1.0018310546875,3.81317138671875,-0.530853271484375,0.179443359375,1,1.0,1.0,1.0,1.0,50.00
2022-11-23 20:24:31.743,0.9436981,0.394705,0.30111074,1.065374,1.1237919,0.66057265,0.446123,1.020724,0.9385535,0.28828844,0.09812515,0.84840775,0.22337367,-0.12000119,-0.16969341,0.108882286,-0.30956408,-0.5395417,-0.5054025,-0.041000865,838.49817,799.41394,801.4286,818.7546,727.6923,-0.213134765625,-0.001708984375,1.0018310546875,3.81317138671875,-0.530853271484375,0.179443359375,1,1.0,1.0,1.0,1.0,50.00
2022-11-23 20:24:31.744,0.9436981,0.394705,0.30111074,1.065374,1.1237919,0.66057265,0.446123,1.020724,0.9385535,0.28828844,0.09812515,0.84840775,0.22337367,-0.12000119,-0.16969341,0.108882286,-0.30956408,-0.5395417,-0.5054025,-0.041000865,803.0403,803.0403,802.6374,787.72894,603.1868,-0.213134765625,-0.001708984375,1.0018310546875,3.81317138671875,-0.530853271484375,0.179443359375,1,1.0,1.0,1.0,1.0,50.00
2022-11-23 20:24:31.745,0.9436981,0.394705,0.30111074,1.065374,1.1237919,0.66057265,0.446123,1.020724,0.9385535,0.28828844,0.09812515,0.84840775,0.22337367,-0.12000119,-0.16969341,0.108882286,-0.30956408,-0.5395417,-0.5054025,-0.041000865,776.04395,804.2491,807.47253,785.31134,532.27106,-0.213134765625,-0.001708984375,1.0018310546875,3.81317138671875,-0.530853271484375,0.179443359375,1,1.0,1.0,1.0,1.0,50.00
2022-11-23 20:24:31.745,0.9436981,0.394705,0.30111074,1.065374,1.1237919,0.66057265,0.446123,1.020724,0.9385535,0.28828844,0.09812515,0.84840775,0.22337367,-0.12000119,-0.16969341,0.108882286,-0.30956408,-0.5395417,-0.5054025,-0.041000865,800.2198,804.2491,809.4872,817.1429,676.52014,-0.213134765625,-0.001708984375,1.0018310546875,3.81317138671875,-0.530853271484375,0.179443359375,1,1.0,1.0,1.0,1.0,50.00
2022-11-23 20:24:31.745,0.9436981,0.394705,0.30111074,1.065374,1.1237919,0.66057265,0.446123,1.020724,0.9385535,0.28828844,0.09812515,0.84840775,0.22337367,-0.12000119,-0.16969341,0.108882286,-0.30956408,-0.5395417,-0.5054025,-0.041000865,832.8571,805.05493,811.50183,830.84247,785.31134,-0.213134765625,-0.001708984375,1.0018310546875,3.81317138671875,-0.530853271484375,0.179443359375,1,1.0,1.0,1.0,1.0,50.00
2022-11-23 20:24:31.746,0.9436981,0.394705,0.30111074,1.065374,1.1237919,0.66057265,0.446123,1.020724,0.9385535,0.28828844,0.09812515,0.84840775,0.22337367,-0.12000119,-0.16969341,0.108882286,-0.30956408,-0.5395417,-0.5054025,-0.041000865,811.9048,802.6374,809.4872,807.0696,855.0183,-0.213134765625,-0.001708984375,1.0018310546875,3.81317138671875,-0.530853271484375,0.179443359375,1,1.0,1.0,1.0,1.0,50.00
2022-11-23 20:24:31.746,0.9436981,0.394705,0.30111074,1.065374,1.1237919,0.66057265,0.446123,1.020724,0.9385535,0.28828844,0.09812515,0.84840775,0.22337367,-0.12000119,-0.16969341,0.108882286,-0.30956408,-0.5395417,-0.5054025,-0.041000865,780.07324,802.6374,807.8755,794.9817,794.9817,-0.213134765625,-0.001708984375,1.0018310546875,3.81317138671875,-0.530853271484375,0.179443359375,1,1.0,1.0,1.0,1.0,50.00
2022-11-23 20:24:31.746,0.9436981,0.394705,0.30111074,1.065374,1.1237919,0.66057265,0.446123,1.020724,0.9385535,0.28828844,0.09812515,0.84840775,0.22337367,-0.12000119,-0.16969341,0.108882286,-0.30956408,-0.5395417,-0.5054025,-0.041000865,801.8315,804.65204,809.4872,813.5165,653.1502,-0.213134765625,-0.001708984375,1.0018310546875,3.81317138671875,-0.530853271484375,0.179443359375,1,1.0,1.0,1.0,1.0,50.00
2022-11-23 20:24:31.747,0.9436981,0.394705,0.30111074,1.065374,1.1237919,0.66057265,0.446123,1.020724,0.9385535,0.28828844,0.09812515,0.84840775,0.22337367,-0.12000119,-0.16969341,0.108882286,-0.30956408,-0.5395417,-0.5054025,-0.041000865,845.34796,805.4579,811.50183,835.6777,780.87915,-0.213134765625,-0.001708984375,1.0018310546875,3.81317138671875,-0.530853271484375,0.179443359375,1,1.0,1.0,1.0,1.0,50.00
2022-11-23 20:24:31.787,0.9436981,0.394705,0.30111074,1.065374,1.1237919,0.66057265,0.446123,1.020724,0.9385535,0.28828844,0.09812515,0.84840775,0.22337367,-0.12000119,-0.16969341,0.108882286,-0.30956408,-0.5395417,-0.5054025,-0.041000865,827.2161,807.8755,809.4872,816.337,749.0476,-0.213134765625,-0.001708984375,1.0018310546875,3.81317138671875,-0.530853271484375,0.179443359375,1,1.0,1.0,1.0,1.0,50.00
2022-11-23 20:24:31.788,0.9436981,0.394705,0.30111074,1.065374,1.1237919,0.66057265,0.446123,1.020724,0.9385535,0.28828844,0.09812515,0.84840775,0.22337367,-0.12000119,-0.16969341,0.108882286,-0.30956408,-0.5395417,-0.5054025,-0.041000865,786.52014,809.0842,803.8461,790.14655,593.5165,-0.213134765625,-0.001708984375,1.0018310546875,3.81317138671875,-0.530853271484375,0.179443359375,1,1.0,1.0,1.0,1.0,50.00
2022-11-23 20:24:31.788,0.9436981,0.394705,0.30111074,1.065374,1.1237919,0.66057265,0.446123,1.020724,0.9385535,0.28828844,0.09812515,0.84840775,0.22337367,-0.12000119,-0.16969341,0.108882286,-0.30956408,-0.5395417,-0.5054025,-0.041000865,796.99634,810.293,805.05493,803.8461,578.60803,-0.213134765625,-0.001708984375,1.0018310546875,3.81317138671875,-0.530853271484375,0.179443359375,1,1.0,1.0,1.0,1.0,50.00
2022-11-23 20:24:31.789,0.9436981,0.394705,0.30111074,1.065374,1.1237919,0.66057265,0.446123,1.020724,0.9385535,0.28828844,0.09812515,0.84840775,0.22337367,-0.12000119,-0.16969341,0.108882286,-0.30956408,-0.5395417,-0.5054025,-0.041000865,834.4689,811.9048,807.0696,827.2161,781.685,-0.213134765625,-0.001708984375,1.0018310546875,3.81317138671875,-0.530853271484375,0.179443359375,1,1.0,1.0,1.0,1.0,50.00
2022-11-23 20:24:31.789,0.9436981,0.394705,0.30111074,1.065374,1.1237919,0.66057265,0.446123,1.020724,0.9385535,0.28828844,0.09812515,0.84840775,0.22337367,-0.12000119,-0.16969341,0.108882286,-0.30956408,-0.5395417,-0.5054025,-0.041000865,837.28937,813.1135,806.6667,830.0366,910.2198,-0.213134765625,-0.001708984375,1.0018310546875,3.81317138671875,-0.530853271484375,0.179443359375,1,1.0,1.0,1.0,1.0,50.00
2022-11-23 20:24:31.789,0.9436981,0.394705,0.30111074,1.065374,1.1237919,0.66057265,0.446123,1.020724,0.9385535,0.28828844,0.09812515,0.84840775,0.22337367,-0.12000119,-0.16969341,0.108882286,-0.30956408,-0.5395417,-0.5054025,-0.041000865,799.81683,815.12823,809.0842,806.6667,741.79486,-0.213134765625,-0.001708984375,1.0018310546875,3.81317138671875,-0.530853271484375,0.179443359375,1,1.0,1.0,1.0,1.0,50.00
2022-11-23 20:24:31.789,0.9436981,0.394705,0.30111074,1.065374,1.1237919,0.66057265,0.446123,1.020724,0.9385535,0.28828844,0.09812515,0.84840775,0.22337367,-0.12000119,-0.16969341,0.108882286,-0.30956408,-0.5395417,-0.5054025,-0.041000865,786.9231,813.91943,809.4872,806.6667,648.315,-0.213134765625,-0.001708984375,1.0018310546875,3.81317138671875,-0.530853271484375,0.179443359375,1,1.0,1.0,1.0,1.0,50.00
2022-11-23 20:24:31.790,0.9436981,0.394705,0.30111074,1.065374,1.1237919,0.66057265,0.446123,1.020724,0.9385535,0.28828844,0.09812515,0.84840775,0.22337367,-0.12000119,-0.16969341,0.108882286,-0.30956408,-0.5395417,-0.5054025,-0.041000865,823.1868,810.293,808.2784,830.4396,814.7253,-0.213134765625,-0.001708984375,1.0018310546875,3.81317138671875,-0.530853271484375,0.179443359375,1,1.0,1.0,1.0,1.0,50.00
2022-11-23 20:24:31.790,0.9436981,0.394705,0.30111074,1.065374,1.1237919,0.66057265,0.446123,1.020724,0.9385535,0.28828844,0.09812515,0.84840775,0.22337367,-0.12000119,-0.16969341,0.108882286,-0.30956408,-0.5395417,-0.5054025,-0.041000865,841.31866,810.696,804.2491,835.2747,1089.9268,-0.213134765625,-0.001708984375,1.0018310546875,3.81317138671875,-0.530853271484375,0.179443359375,1,1.0,1.0,1.0,1.0,50.00
2022-11-23 20:24:31.790,0.9436981,0.394705,0.30111074,1.065374,1.1237919,0.66057265,0.446123,1.020724,0.9385535,0.28828844,0.09812515,0.84840775,0.22337367,-0.12000119,-0.16969341,0.108882286,-0.30956408,-0.5395417,-0.5054025,-0.041000865,801.4286,806.26373,802.6374,809.89014,888.46155,-0.213134765625,-0.001708984375,1.0018310546875,3.81317138671875,-0.530853271484375,0.179443359375,1,1.0,1.0,1.0,1.0,50.00
2022-11-23 20:24:31.790,0.9436981,0.394705,0.30111074,1.065374,1.1237919,0.66057265,0.446123,1.020724,0.9385535,0.28828844,0.09812515,0.84840775,0.22337367,-0.12000119,-0.16969341,0.108882286,-0.30956408,-0.5395417,-0.5054025,-0.041000865,774.43225,803.8461,807.47253,792.1612,573.36993,-0.213134765625,-0.001708984375,1.0018310546875,3.81317138671875,-0.530853271484375,0.179443359375,1,1.0,1.0,1.0,1.0,50.00
2022-11-23 20:24:31.791,0.9436981,0.394705,0.30111074,1.065374,1.1237919,0.66057265,0.446123,1.020724,0.9385535,0.28828844,0.09812515,0.84840775,0.22337367,-0.12000119,-0.16969341,0.108882286,-0.30956408,-0.5395417,-0.5054025,-0.041000865,808.68134,809.0842,809.89014,813.1135,712.7839,-0.213134765625,-0.001708984375,1.0018310546875,3.81317138671875,-0.530853271484375,0.179443359375,1,1.0,1.0,1.0,1.0,50.00
2022-11-23 20:24:31.833,0.9436981,0.394705,0.30111074,1.065374,1.1237919,0.66057265,0.446123,1.020724,0.9385535,0.28828844,0.09812515,0.84840775,0.22337367,-0.12000119,-0.16969341,0.108882286,-0.30956408,-0.5395417,-0.5054025,-0.041000865,845.7509,810.293,805.8608,838.9011,859.0476,-0.20404052734375,-0.00225830078125,1.0084228515625,1.861724853515625,-0.6280517578125,0.0299072265625,1,1.0,1.0,1.0,1.0,50.00
2022-11-23 20:24:31.834,0.9436981,0.394705,0.30111074,1.065374,1.1237919,0.66057265,0.446123,1.020724,0.9385535,0.28828844,0.09812515,0.84840775,0.22337367,-0.12000119,-0.16969341,0.108882286,-0.30956408,-0.5395417,-0.5054025,-0.041000865,831.6484,809.4872,802.23444,833.663,811.50183,-0.20404052734375,-0.00225830078125,1.0084228515625,1.861724853515625,-0.6280517578125,0.0299072265625,1,1.0,1.0,1.0,1.0,50.00
2022-11-23 20:24:31.834,0.9436981,0.394705,0.30111074,1.065374,1.1237919,0.66057265,0.446123,1.020724,0.9385535,0.28828844,0.09812515,0.84840775,0.22337367,-0.12000119,-0.16969341,0.108882286,-0.30956408,-0.5395417,-0.5054025,-0.041000865,789.34064,817.5458,810.696,796.99634,650.32965,-0.20404052734375,-0.00225830078125,1.0084228515625,1.861724853515625,-0.6280517578125,0.0299072265625,1,1.0,1.0,1.0,1.0,50.00
2022-11-23 20:24:31.834,0.9436981,0.394705,0.30111074,1.065374,1.1237919,0.66057265,0.446123,1.020724,0.9385535,0.28828844,0.09812515,0.84840775,0.22337367,-0.12000119,-0.16969341,0.108882286,-0.30956408,-0.5395417,-0.5054025,-0.041000865,782.0879,821.1722,812.71063,783.2967,709.9634,-0.20404052734375,-0.00225830078125,1.0084228515625,1.861724853515625,-0.6280517578125,0.0299072265625,1,1.0,1.0,1.0,1.0,50.00
2022-11-23 20:24:31.835,0.9436981,0.394705,0.30111074,1.065374,1.1237919,0.66057265,0.446123,1.020724,0.9385535,0.28828844,0.09812515,0.84840775,0.22337367,-0.12000119,-0.16969341,0.108882286,-0.30956408,-0.5395417,-0.5054025,-0.041000865,803.8461,813.5165,809.4872,792.1612,972.674,-0.20404052734375,-0.00225830078125,1.0084228515625,1.861724853515625,-0.6280517578125,0.0299072265625,1,1.0,1.0,1.0,1.0,50.00
2022-11-23 20:24:31.835,0.92684954,0.37038517,0.2769532,1.046168,1.1252393,0.64974666,0.4183284,1.0008254,0.9385535,0.28828844,0.09812515,0.8496326,0.20688741,-0.102299795,-0.1796839,0.1155705,-0.29857028,-0.5157682,-0.5355081,-0.048112072,781.28204,812.71063,807.47253,769.19415,1018.20514,-0.20404052734375,-0.00225830078125,1.0084228515625,1.861724853515625,-0.6280517578125,0.0299072265625,1,1.0,1.0,1.0,1.0,50.00
2022-11-23 20:24:31.836,0.92684954,0.37038517,0.2769532,1.046168,1.1252393,0.64974666,0.4183284,1.0008254,0.9385535,0.28828844,0.09812515,0.8496326,0.20688741,-0.102299795,-0.1796839,0.1155705,-0.29857028,-0.5157682,-0.5355081,-0.048112072,733.73627,809.0842,807.0696,730.9158,850.989,-0.20404052734375,-0.00225830078125,1.0084228515625,1.861724853515625,-0.6280517578125,0.0299072265625,1,1.0,1.0,1.0,1.0,50.00
2022-11-23 20:24:31.836,0.92684954,0.37038517,0.2769532,1.046168,1.1252393,0.64974666,0.4183284,1.0008254,0.9385535,0.28828844,0.09812515,0.8496326,0.20688741,-0.102299795,-0.1796839,0.1155705,-0.29857028,-0.5157682,-0.5355081,-0.048112072,727.6923,804.2491,809.89014,732.52747,969.0476,-0.20404052734375,-0.00225830078125,1.0084228515625,1.861724853515625,-0.6280517578125,0.0299072265625,1,1.0,1.0,1.0,1.0,50.00
2022-11-23 20:24:31.837,0.92684954,0.37038517,0.2769532,1.046168,1.1252393,0.64974666,0.4183284,1.0008254,0.9385535,0.28828844,0.09812515,0.8496326,0.20688741,-0.102299795,-0.1796839,0.1155705,-0.29857028,-0.5157682,-0.5355081,-0.048112072,748.6447,816.7399,812.3077,738.5714,1210.403,-0.20404052734375,-0.00225830078125,1.0084228515625,1.861724853515625,-0.6280517578125,0.0299072265625,1,1.0,1.0,1.0,1.0,50.00
2022-11-23 20:24:31.837,0.92684954,0.37038517,0.2769532,1.046168,1.1252393,0.64974666,0.4183284,1.0008254,0.9385535,0.28828844,0.09812515,0.8496326,0.20688741,-0.102299795,-0.1796839,0.1155705,-0.29857028,-0.5157682,-0.5355081,-0.048112072,739.7802,820.7692,809.89014,709.5604,937.2161,-0.20404052734375,-0.00225830078125,1.0084228515625,1.861724853515625,-0.6280517578125,0.0299072265625,1,1.0,1.0,1.0,1.0,50.00
2022-11-23 20:24:31.837,0.92684954,0.37038517,0.2769532,1.046168,1.1252393,0.64974666,0.4183284,1.0008254,0.9385535,0.28828844,0.09812515,0.8496326,0.20688741,-0.102299795,-0.1796839,0.1155705,-0.29857028,-0.5157682,-0.5355081,-0.048112072,694.2491,809.4872,806.26373,682.96704,628.97437,-0.20404052734375,-0.00225830078125,1.0084228515625,1.861724853515625,-0.6280517578125,0.0299072265625,1,1.0,1.0,1.0,1.0,50.00
2022-11-23 20:24:31.837,0.92684954,0.37038517,0.2769532,1.046168,1.1252393,0.64974666,0.4183284,1.0008254,0.9385535,0.28828844,0.09812515,0.8496326,0.20688741,-0.102299795,-0.1796839,0.1155705,-0.29857028,-0.5157682,-0.5355081,-0.048112072,665.64105,811.50183,813.1135,674.5055,553.6264,-0.20404052734375,-0.00225830078125,1.0084228515625,1.861724853515625,-0.6280517578125,0.0299072265625,1,1.0,1.0,1.0,1.0,50.00
2022-11-23 20:24:31.884,0.92684954,0.37038517,0.2769532,1.046168,1.1252393,0.64974666,0.4183284,1.0008254,0.9385535,0.28828844,0.09812515,0.8496326,0.20688741,-0.102299795,-0.1796839,0.1155705,-0.29857028,-0.5157682,-0.5355081,-0.048112072,687.3993,819.15753,815.12823,684.57874,673.2967,-0.19537353515625,0.002197265625,1.0185546875,1.45050048828125,-1.502838134765625,2.564544677734375,1,1.0,1.0,1.0,1.0,50.00
2022-11-23 20:24:31.884,0.92684954,0.37038517,0.2769532,1.046168,1.1252393,0.64974666,0.4183284,1.0008254,0.9385535,0.28828844,0.09812515,0.8496326,0.20688741,-0.102299795,-0.1796839,0.1155705,-0.29857028,-0.5157682,-0.5355081,-0.048112072,706.337,818.7546,813.5165,685.78754,799.011,-0.19537353515625,0.002197265625,1.0185546875,1.45050048828125,-1.502838134765625,2.564544677734375,1,1.0,1.0,1.0,1.0,50.00
2022-11-23 20:24:31.884,0.92684954,0.37038517,0.2769532,1.046168,1.1252393,0.64974666,0.4183284,1.0008254,0.9385535,0.28828844,0.09812515,0.8496326,0.20688741,-0.102299795,-0.1796839,0.1155705,-0.29857028,-0.5157682,-0.5355081,-0.048112072,667.25275,813.1135,817.5458,651.9414,703.5165,-0.19537353515625,0.002197265625,1.0185546875,1.45050048828125,-1.502838134765625,2.564544677734375,1,1.0,1.0,1.0,1.0,50.00
2022-11-23 20:24:31.885,0.92684954,0.37038517,0.2769532,1.046168,1.1252393,0.64974666,0.4183284,1.0008254,0.9385535,0.28828844,0.09812515,0.8496326,0.20688741,-0.102299795,-0.1796839,0.1155705,-0.29857028,-0.5157682,-0.5355081,-0.048112072,623.3333,818.7546,813.5165,619.304,570.9524,-0.19537353515625,0.002197265625,1.0185546875,1.45050048828125,-1.502838134765625,2.564544677734375,1,1.0,1.0,1.0,1.0,50.00
2022-11-23 20:24:31.885,0.92684954,0.37038517,0.2769532,1.046168,1.1252393,0.64974666,0.4183284,1.0008254,0.9385535,0.28828844,0.09812515,0.8496326,0.20688741,-0.102299795,-0.1796839,0.1155705,-0.29857028,-0.5157682,-0.5355081,-0.048112072,643.8828,827.619,811.9048,639.0476,677.72894,-0.19537353515625,0.002197265625,1.0185546875,1.45050048828125,-1.502838134765625,2.564544677734375,1,1.0,1.0,1.0,1.0,50.00
2022-11-23 20:24:31.885,0.92684954,0.37038517,0.2769532,1.046168,1.1252393,0.64974666,0.4183284,1.0008254,0.9385535,0.28828844,0.09812515,0.8496326,0.20688741,-0.102299795,-0.1796839,0.1155705,-0.29857028,-0.5157682,-0.5355081,-0.048112072,669.2674,828.022,819.5604,649.92676,828.022,-0.19537353515625,0.002197265625,1.0185546875,1.45050048828125,-1.502838134765625,2.564544677734375,1,1.0,1.0,1.0,1.0,50.00
2022-11-23 20:24:31.885,0.92684954,0.37038517,0.2769532,1.046168,1.1252393,0.64974666,0.4183284,1.0008254,0.9385535,0.28828844,0.09812515,0.8496326,0.20688741,-0.102299795,-0.1796839,0.1155705,-0.29857028,-0.5157682,-0.5355081,-0.048112072,653.95605,825.2015,822.7839,633.4066,780.07324,-0.19537353515625,0.002197265625,1.0185546875,1.45050048828125,-1.502838134765625,2.564544677734375,1,1.0,1.0,1.0,1.0,50.00
2022-11-23 20:24:31.886,0.92684954,0.37038517,0.2769532,1.046168,1.1252393,0.64974666,0.4183284,1.0008254,0.9385535,0.28828844,0.09812515,0.8496326,0.20688741,-0.102299795,-0.1796839,0.1155705,-0.29857028,-0.5157682,-0.5355081,-0.048112072,617.28937,826.8132,821.5751,621.31866,819.9634,-0.19537353515625,0.002197265625,1.0185546875,1.45050048828125,-1.502838134765625,2.564544677734375,1,1.0,1.0,1.0,1.0,50.00
2022-11-23 20:24:31.886,0.92684954,0.37038517,0.2769532,1.046168,1.1252393,0.64974666,0.4183284,1.0008254,0.9385535,0.28828844,0.09812515,0.8496326,0.20688741,-0.102299795,-0.1796839,0.1155705,-0.29857028,-0.5157682,-0.5355081,-0.048112072,620.9158,829.2308,821.1722,625.7509,811.9048,-0.19537353515625,0.002197265625,1.0185546875,1.45050048828125,-1.502838134765625,2.564544677734375,1,1.0,1.0,1.0,1.0,50.00
2022-11-23 20:24:31.886,0.92684954,0.37038517,0.2769532,1.046168,1.1252393,0.64974666,0.4183284,1.0008254,0.9385535,0.28828844,0.09812515,0.8496326,0.20688741,-0.102299795,-0.1796839,0.1155705,-0.29857028,-0.5157682,-0.5355081,-0.048112072,667.25275,831.2454,821.5751,649.5238,794.17584,-0.19537353515625,0.002197265625,1.0185546875,1.45050048828125,-1.502838134765625,2.564544677734375,1,1.0,1.0,1.0,1.0,50.00
2022-11-23 20:24:31.887,0.92684954,0.37038517,0.2769532,1.046168,1.1252393,0.64974666,0.4183284,1.0008254,0.9385535,0.28828844,0.09812515,0.8496326,0.20688741,-0.102299795,-0.1796839,0.1155705,-0.29857028,-0.5157682,-0.5355081,-0.048112072,655.9707,828.4249,822.7839,643.0769,891.28204,-0.19537353515625,0.002197265625,1.0185546875,1.45050048828125,-1.502838134765625,2.564544677734375,1,1.0,1.0,1.0,1.0,50.00
2022-11-23 20:24:31.887,0.92684954,0.37038517,0.2769532,1.046168,1.1252393,0.64974666,0.4183284,1.0008254,0.9385535,0.28828844,0.09812515,0.8496326,0.20688741,-0.102299795,-0.1796839,0.1155705,-0.29857028,-0.5157682,-0.5355081,-0.048112072,610.4396,824.3956,823.5897,618.49817,779.67035,-0.19537353515625,0.002197265625,1.0185546875,1.45050048828125,-1.502838134765625,2.564544677734375,1,1.0,1.0,1.0,1.0,50.00
2022-11-23 20:24:31.934,0.92684954,0.37038517,0.2769532,1.046168,1.1252393,0.64974666,0.4183284,1.0008254,0.9385535,0.28828844,0.09812515,0.8496326,0.20688741,-0.102299795,-0.1796839,0.1155705,-0.29857028,-0.5157682,-0.5355081,-0.048112072,620.9158,823.5897,823.5897,625.7509,604.7985,-0.23504638671875,-0.0064697265625,0.98272705078125,-0.411224365234375,3.6785888671875,2.519683837890625,1,1.0,1.0,1.0,1.0,50.00
2022-11-23 20:24:31.934,0.92684954,0.37038517,0.2769532,1.046168,1.1252393,0.64974666,0.4183284,1.0008254,0.9385535,0.28828844,0.09812515,0.8496326,0.20688741,-0.102299795,-0.1796839,0.1155705,-0.29857028,-0.5157682,-0.5355081,-0.048112072,668.0586,821.5751,825.6044,655.56775,691.8315,-0.23504638671875,-0.0064697265625,0.98272705078125,-0.411224365234375,3.6785888671875,2.519683837890625,1,1.0,1.0,1.0,1.0,50.00
2022-11-23 20:24:31.934,0.92684954,0.37038517,0.2769532,1.046168,1.1252393,0.64974666,0.4183284,1.0008254,0.9385535,0.28828844,0.09812515,0.8496326,0.20688741,-0.102299795,-0.1796839,0.1155705,-0.29857028,-0.5157682,-0.5355081,-0.048112072,691.8315,819.9634,821.978,672.8938,809.0842,-0.23504638671875,-0.0064697265625,0.98272705078125,-0.411224365234375,3.6785888671875,2.519683837890625,1,1.0,1.0,1.0,1.0,50.00
2022-11-23 20:24:31.935,0.92684954,0.37038517,0.2769532,1.046168,1.1252393,0.64974666,0.4183284,1.0008254,0.9385535,0.28828844,0.09812515,0.8496326,0.20688741,-0.102299795,-0.1796839,0.1155705,-0.29857028,-0.5157682,-0.5355081,-0.048112072,666.04395,819.5604,820.3663,665.2381,730.9158,-0.23504638671875,-0.0064697265625,0.98272705078125,-0.411224365234375,3.6785888671875,2.519683837890625,1,1.0,1.0,1.0,1.0,50.00
2022-11-23 20:24:31.935,0.92684954,0.37038517,0.2769532,1.046168,1.1252393,0.64974666,0.4183284,1.0008254,0.9385535,0.28828844,0.09812515,0.8496326,0.20688741,-0.102299795,-0.1796839,0.1155705,-0.29857028,-0.5157682,-0.5355081,-0.048112072,644.68866,815.12823,819.5604,657.5824,612.4542,-0.23504638671875,-0.0064697265625,0.98272705078125,-0.411224365234375,3.6785888671875,2.519683837890625,1,1.0,1.0,1.0,1.0,50.00
2022-11-23 20:24:31.935,0.92684954,0.37038517,0.2769532,1.046168,1.1252393,0.64974666,0.4183284,1.0008254,0.9385535,0.28828844,0.09812515,0.8496326,0.20688741,-0.102299795,-0.1796839,0.1155705,-0.29857028,-0.5157682,-0.5355081,-0.048112072,689.41394,810.696,815.5311,694.2491,754.68866,-0.23504638671875,-0.0064697265625,0.98272705078125,-0.411224365234375,3.6785888671875,2.519683837890625,1,1.0,1.0,1.0,1.0,50.00
2022-11-23 20:24:31.935,0.92684954,0.37038517,0.2769532,1.046168,1.1252393,0.64974666,0.4183284,1.0008254,0.9385535,0.28828844,0.09812515,0.8496326,0.20688741,-0.102299795,-0.1796839,0.1155705,-0.29857028,-0.5157682,-0.5355081,-0.048112072,734.1392,811.50183,813.91943,729.304,1090.3297,-0.23504638671875,-0.0064697265625,0.98272705078125,-0.411224365234375,3.6785888671875,2.519683837890625,1,1.0,1.0,1.0,1.0,50.00
2022-11-23 20:24:31.935,0.91371906,0.3392132,0.25676838,1.046168,1.1080151,0.63026506,0.3805585,1.0008254,0.9385535,0.2610932,0.09812515,0.8496326,0.20332259,-0.08654888,-0.1873238,0.1155705,-0.2933141,-0.48948237,-0.5569027,-0.048112072,706.7399,811.0989,813.1135,713.5897,1064.1392,-0.23504638671875,-0.0064697265625,0.98272705078125,-0.411224365234375,3.6785888671875,2.519683837890625,1,1.0,1.0,1.0,1.0,50.00
2022-11-23 20:24:31.937,0.91371906,0.3392132,0.25676838,1.046168,1.1080151,0.63026506,0.3805585,1.0008254,0.9385535,0.2610932,0.09812515,0.8496326,0.20332259,-0.08654888,-0.1873238,0.1155705,-0.2933141,-0.48948237,-0.5569027,-0.048112072,680.54944,804.2491,811.50183,701.50183,647.50916,-0.23504638671875,-0.0064697265625,0.98272705078125,-0.411224365234375,3.6785888671875,2.519683837890625,1,1.0,1.0,1.0,1.0,50.00
2022-11-23 20:24:31.937,0.91371906,0.3392132,0.25676838,1.046168,1.1080151,0.63026506,0.3805585,1.0008254,0.9385535,0.2610932,0.09812515,0.8496326,0.20332259,-0.08654888,-0.1873238,0.1155705,-0.2933141,-0.48948237,-0.5569027,-0.048112072,724.4689,797.3993,808.68134,734.94507,776.4469,-0.23504638671875,-0.0064697265625,0.98272705078125,-0.411224365234375,3.6785888671875,2.519683837890625,1,1.0,1.0,1.0,1.0,50.00
2022-11-23 20:24:31.937,0.91371906,0.3392132,0.25676838,1.046168,1.1080151,0.63026506,0.3805585,1.0008254,0.9385535,0.2610932,0.09812515,0.8496326,0.20332259,-0.08654888,-0.1873238,0.1155705,-0.2933141,-0.48948237,-0.5569027,-0.048112072,763.5531,797.3993,804.65204,756.30035,1019.41394,-0.23504638671875,-0.0064697265625,0.98272705078125,-0.411224365234375,3.6785888671875,2.519683837890625,1,1.0,1.0,1.0,1.0,50.00
2022-11-23 20:24:31.937,0.91371906,0.3392132,0.25676838,1.046168,1.1080151,0.63026506,0.3805585,1.0008254,0.9385535,0.2610932,0.09812515,0.8496326,0.20332259,-0.08654888,-0.1873238,0.1155705,-0.2933141,-0.48948237,-0.5569027,-0.048112072,748.24176,798.60803,805.4579,749.45056,854.21246,-0.23504638671875,-0.0064697265625,0.98272705078125,-0.411224365234375,3.6785888671875,2.519683837890625,1,1.0,1.0,1.0,1.0,50.00
2022-11-23 20:24:31.984,0.91371906,0.3392132,0.25676838,1.046168,1.1080151,0.63026506,0.3805585,1.0008254,0.9385535,0.2610932,0.09812515,0.8496326,0.20332259,-0.08654888,-0.1873238,0.1155705,-0.2933141,-0.48948237,-0.5569027,-0.048112072,726.08057,796.5934,808.68134,745.42126,694.65204,-0.25164794921875,-0.012451171875,0.966552734375,3.446807861328125,3.132781982421875,-1.45050048828125,1,1.0,1.0,1.0,1.0,50.00
2022-11-23 20:24:31.984,0.91371906,0.3392132,0.25676838,1.046168,1.1080151,0.63026506,0.3805585,1.0008254,0.9385535,0.2610932,0.09812515,0.8496326,0.20332259,-0.08654888,-0.1873238,0.1155705,-0.2933141,-0.48948237,-0.5569027,-0.048112072,750.65936,796.1905,802.6374,769.59705,680.54944,-0.25164794921875,-0.012451171875,0.966552734375,3.446807861328125,3.132781982421875,-1.45050048828125,1,1.0,1.0,1.0,1.0,50.00
2022-11-23 20:24:31.984,0.91371906,0.3392132,0.25676838,1.046168,1.1080151,0.63026506,0.3805585,1.0008254,0.9385535,0.2610932,0.09812515,0.8496326,0.20332259,-0.08654888,-0.1873238,0.1155705,-0.2933141,-0.48948237,-0.5569027,-0.048112072,795.78754,796.99634,798.60803,805.8608,907.8022,-0.25164794921875,-0.012451171875,0.966552734375,3.446807861328125,3.132781982421875,-1.45050048828125,1,1.0,1.0,1.0,1.0,50.00
2022-11-23 20:24:31.985,0.91371906,0.3392132,0.25676838,1.046168,1.1080151,0.63026506,0.3805585,1.0008254,0.9385535,0.2610932,0.09812515,0.8496326,0.20332259,-0.08654888,-0.1873238,0.1155705,-0.2933141,-0.48948237,-0.5569027,-0.048112072,801.4286,791.75824,796.5934,801.4286,966.2271,-0.25164794921875,-0.012451171875,0.966552734375,3.446807861328125,3.132781982421875,-1.45050048828125,1,1.0,1.0,1.0,1.0,50.00
2022-11-23 20:24:31.985,0.91371906,0.3392132,0.25676838,1.046168,1.1080151,0.63026506,0.3805585,1.0008254,0.9385535,0.2610932,0.09812515,0.8496326,0.20332259,-0.08654888,-0.1873238,0.1155705,-0.2933141,-0.48948237,-0.5569027,-0.048112072,776.04395,787.72894,792.1612,773.22345,670.07324,-0.25164794921875,-0.012451171875,0.966552734375,3.446807861328125,3.132781982421875,-1.45050048828125,1,1.0,1.0,1.0,1.0,50.00
2022-11-23 20:24:31.985,0.91371906,0.3392132,0.25676838,1.046168,1.1080151,0.63026506,0.3805585,1.0008254,0.9385535,0.2610932,0.09812515,0.8496326,0.20332259,-0.08654888,-0.1873238,0.1155705,-0.2933141,-0.48948237,-0.5569027,-0.048112072,769.19415,788.93774,790.54944,774.43225,627.3626,-0.25164794921875,-0.012451171875,0.966552734375,3.446807861328125,3.132781982421875,-1.45050048828125,1,1.0,1.0,1.0,1.0,50.00
2022-11-23 20:24:31.985,0.91371906,0.3392132,0.25676838,1.046168,1.1080151,0.63026506,0.3805585,1.0008254,0.9385535,0.2610932,0.09812515,0.8496326,0.20332259,-0.08654888,-0.1873238,0.1155705,-0.2933141,-0.48948237,-0.5569027,-0.048112072,807.8755,792.5641,789.7436,811.0989,1005.7143,-0.25164794921875,-0.012451171875,0.966552734375,3.446807861328125,3.132781982421875,-1.45050048828125,1,1.0,1.0,1.0,1.0,50.00
2022-11-23 20:24:31.986,0.91371906,0.3392132,0.25676838,1.046168,1.1080151,0.63026506,0.3805585,1.0008254,0.9385535,0.2610932,0.09812515,0.8496326,0.20332259,-0.08654888,-0.1873238,0.1155705,-0.2933141,-0.48948237,-0.5569027,-0.048112072,843.73627,796.1905,789.34064,823.9927,1100.0,-0.25164794921875,-0.012451171875,0.966552734375,3.446807861328125,3.132781982421875,-1.45050048828125,1,1.0,1.0,1.0,1.0,50.00
2022-11-23 20:24:31.986,0.91371906,0.3392132,0.25676838,1.046168,1.1080151,0.63026506,0.3805585,1.0008254,0.9385535,0.2610932,0.09812515,0.8496326,0.20332259,-0.08654888,-0.1873238,0.1155705,-0.2933141,-0.48948237,-0.5569027,-0.048112072,818.7546,793.36993,795.78754,805.8608,810.293,-0.25164794921875,-0.012451171875,0.966552734375,3.446807861328125,3.132781982421875,-1.45050048828125,1,1.0,1.0,1.0,1.0,50.00
2022-11-23 20:24:31.986,0.91371906,0.3392132,0.25676838,1.046168,1.1080151,0.63026506,0.3805585,1.0008254,0.9385535,0.2610932,0.09812515,0.8496326,0.20332259,-0.08654888,-0.1873238,0.1155705,-0.2933141,-0.48948237,-0.5569027,-0.048112072,795.38464,793.7729,794.17584,799.81683,705.9341,-0.25164794921875,-0.012451171875,0.966552734375,3.446807861328125,3.132781982421875,-1.45050048828125,1,1.0,1.0,1.0,1.0,50.00
2022-11-23 20:24:31.986,0.91371906,0.3392132,0.25676838,1.046168,1.1080151,0.63026506,0.3805585,1.0008254,0.9385535,0.2610932,0.09812515,0.8496326,0.20332259,-0.08654888,-0.1873238,0.1155705,-0.2933141,-0.48948237,-0.5569027,-0.048112072,827.619,792.5641,788.5348,831.2454,869.92676,-0.25164794921875,-0.012451171875,0.966552734375,3.446807861328125,3.132781982421875,-1.45050048828125,1,1.0,1.0,1.0,1.0,50.00
2022-11-23 20:24:31.987,0.91371906,0.3392132,0.25676838,1.046168,1.1080151,0.63026506,0.3805585,1.0008254,0.9385535,0.2610932,0.09812515,0.8496326,0.20332259,-0.08654888,-0.1873238,0.1155705,-0.2933141,-0.48948237,-0.5569027,-0.048112072,853.00366,786.52014,788.1319,848.97437,929.5604,-0.25164794921875,-0.012451171875,0.966552734375,3.446807861328125,3.132781982421875,-1.45050048828125,1,1.0,1.0,1.0,1.0,50.00
2022-11-23 20:24:32.033,0.91371906,0.3392132,0.25676838,1.046168,1.1080151,0.63026506,0.3805585,1.0008254,0.9385535,0.2610932,0.09812515,0.8496326,0.20332259,-0.08654888,-0.1873238,0.1155705,-0.2933141,-0.48948237,-0.5569027,-0.048112072,842.1245,791.3553,793.7729,835.6777,778.0586,-0.25164794921875,-0.012451171875,0.966552734375,3.446807861328125,3.132781982421875,-1.45050048828125,1,1.0,1.0,1.0,1.0,50.00
2022-11-23 20:24:32.033,0.91371906,0.3392132,0.25676838,1.046168,1.1080151,0.63026506,0.3805585,1.0008254,0.9385535,0.2610932,0.09812515,0.8496326,0.20332259,-0.08654888,-0.1873238,0.1155705,-0.2933141,-0.48948237,-0.5569027,-0.048112072,824.3956,795.38464,792.5641,824.7985,579.81683,-0.25164794921875,-0.012451171875,0.966552734375,3.446807861328125,3.132781982421875,-1.45050048828125,1,1.0,1.0,1.0,1.0,50.00
2022-11-23 20:24:32.034,0.91371906,0.3392132,0.25676838,1.046168,1.1080151,0.63026506,0.3805585,1.0008254,0.9385535,0.2610932,0.09812515,0.8496326,0.20332259,-0.08654888,-0.1873238,0.1155705,-0.2933141,-0.48948237,-0.5569027,-0.048112072,844.1392,794.9817,790.9524,840.9158,621.31866,-0.25164794921875,-0.012451171875,0.966552734375,3.446807861328125,3.132781982421875,-1.45050048828125,1,1.0,1.0,1.0,1.0,50.00
2022-11-23 20:24:32.034,0.91371906,0.3392132,0.25676838,1.046168,1.1080151,0.63026506,0.3805585,1.0008254,0.9385535,0.2610932,0.09812515,0.8496326,0.20332259,-0.08654888,-0.1873238,0.1155705,-0.2933141,-0.48948237,-0.5569027,-0.048112072,875.56775,796.5934,790.54944,860.2564,832.4542,-0.25164794921875,-0.012451171875,0.966552734375,3.446807861328125,3.132781982421875,-1.45050048828125,1,1.0,1.0,1.0,1.0,50.00
2022-11-23 20:24:32.034,0.91371906,0.3392132,0.25676838,1.046168,1.1080151,0.63026506,0.3805585,1.0008254,0.9385535,0.2610932,0.09812515,0.8496326,0.20332259,-0.08654888,-0.1873238,0.1155705,-0.2933141,-0.48948237,-0.5569027,-0.048112072,863.47986,794.57874,786.9231,848.1685,834.0659,-0.25164794921875,-0.012451171875,0.966552734375,3.446807861328125,3.132781982421875,-1.45050048828125,1,1.0,1.0,1.0,1.0,50.00
2022-11-23 20:24:32.034,0.91371906,0.3392132,0.25676838,1.046168,1.1080151,0.63026506,0.3805585,1.0008254,0.9385535,0.2610932,0.09812515,0.8496326,0.20332259,-0.08654888,-0.1873238,0.1155705,-0.2933141,-0.48948237,-0.5569027,-0.048112072,829.2308,792.1612,790.54944,838.0952,809.0842,-0.25164794921875,-0.012451171875,0.966552734375,3.446807861328125,3.132781982421875,-1.45050048828125,1,1.0,1.0,1.0,1.0,50.00
2022-11-23 20:24:32.035,0.91371906,0.3392132,0.25676838,1.046168,1.1080151,0.63026506,0.3805585,1.0008254,0.9385535,0.2610932,0.09812515,0.8496326,0.20332259,-0.08654888,-0.1873238,0.1155705,-0.2933141,-0.48948237,-0.5569027,-0.048112072,832.8571,792.96704,797.3993,856.63007,1008.5348,-0.25164794921875,-0.012451171875,0.966552734375,3.446807861328125,3.132781982421875,-1.45050048828125,1,1.0,1.0,1.0,1.0,50.00
2022-11-23 20:24:32.035,0.91371906,0.3392132,0.25676838,1.046168,1.1080151,0.63026506,0.3805585,1.0008254,0.9385535,0.2610932,0.09812515,0.8496326,0.20332259,-0.08654888,-0.1873238,0.1155705,-0.2933141,-0.48948237,-0.5569027,-0.048112072,869.12085,795.38464,801.4286,874.35895,1021.02563,-0.25164794921875,-0.012451171875,0.966552734375,3.446807861328125,3.132781982421875,-1.45050048828125,1,1.0,1.0,1.0,1.0,50.00
2022-11-23 20:24:32.035,0.91371906,0.3392132,0.25676838,1.046168,1.1080151,0.63026506,0.3805585,1.0008254,0.9385535,0.2610932,0.09812515,0.8496326,0.20332259,-0.08654888,-0.1873238,0.1155705,-0.2933141,-0.48948237,-0.5569027,-0.048112072,877.1795,795.78754,802.23444,874.7619,860.2564,-0.25164794921875,-0.012451171875,0.966552734375,3.446807861328125,3.132781982421875,-1.45050048828125,1,1.0,1.0,1.0,1.0,50.00
2022-11-23 20:24:32,,,,,,,,,,,,,,,,,,,,,,,,,,,,,,,,,,,,,,/muse/elements/blink
2022-11-23 20:24:32.035,0.8812007,0.31586373,0.2561147,1.0183302,1.049976,0.5992394,0.34931248,0.95704234,0.9219979,0.22853084,0.09719422,0.8164376,0.19726767,-0.07585962,-0.1942379,0.10616694,-0.29317704,-0.46396726,-0.56850815,-0.040054727,848.5714,800.2198,804.2491,856.2271,664.83514,-0.25164794921875,-0.012451171875,0.966552734375,3.446807861328125,3.132781982421875,-1.45050048828125,1,1.0,1.0,1.0,1.0,50.00
2022-11-23 20:24:32.037,0.8812007,0.31586373,0.2561147,1.0183302,1.049976,0.5992394,0.34931248,0.95704234,0.9219979,0.22853084,0.09719422,0.8164376,0.19726767,-0.07585962,-0.1942379,0.10616694,-0.29317704,-0.46396726,-0.56850815,-0.040054727,838.0952,808.2784,805.05493,846.55676,589.89014,-0.25164794921875,-0.012451171875,0.966552734375,3.446807861328125,3.132781982421875,-1.45050048828125,1,1.0,1.0,1.0,1.0,50.00
2022-11-23 20:24:32.037,0.8812007,0.31586373,0.2561147,1.0183302,1.049976,0.5992394,0.34931248,0.95704234,0.9219979,0.22853084,0.09719422,0.8164376,0.19726767,-0.07585962,-0.1942379,0.10616694,-0.29317704,-0.46396726,-0.56850815,-0.040054727,867.50916,805.8608,804.65204,868.315,705.12823,-0.25164794921875,-0.012451171875,0.966552734375,3.446807861328125,3.132781982421875,-1.45050048828125,1,1.0,1.0,1.0,1.0,50.00
2022-11-23 20:24:32.080,0.8812007,0.31586373,0.2561147,1.0183302,1.049976,0.5992394,0.34931248,0.95704234,0.9219979,0.22853084,0.09719422,0.8164376,0.19726767,-0.07585962,-0.1942379,0.10616694,-0.29317704,-0.46396726,-0.56850815,-0.040054727,877.98535,801.02563,801.8315,871.9414,821.1722,-0.2294921875,-0.00518798828125,0.99053955078125,5.30853271484375,3.21502685546875,-3.66363525390625,1,1.0,1.0,1.0,1.0,50.00
2022-11-23 20:24:32.081,0.8812007,0.31586373,0.2561147,1.0183302,1.049976,0.5992394,0.34931248,0.95704234,0.9219979,0.22853084,0.09719422,0.8164376,0.19726767,-0.07585962,-0.1942379,0.10616694,-0.29317704,-0.46396726,-0.56850815,-0.040054727,843.3333,803.44324,802.6374,855.82416,725.2747,-0.2294921875,-0.00518798828125,0.99053955078125,5.30853271484375,3.21502685546875,-3.66363525390625,1,1.0,1.0,1.0,1.0,50.00
2022-11-23 20:24:32.081,0.8812007,0.31586373,0.2561147,1.0183302,1.049976,0.5992394,0.34931248,0.95704234,0.9219979,0.22853084,0.09719422,0.8164376,0.19726767,-0.07585962,-0.1942379,0.10616694,-0.29317704,-0.46396726,-0.56850815,-0.040054727,824.3956,803.44324,805.8608,846.9597,606.0073,-0.2294921875,-0.00518798828125,0.99053955078125,5.30853271484375,3.21502685546875,-3.66363525390625,1,1.0,1.0,1.0,1.0,50.00
2022-11-23 20:24:32.081,0.8812007,0.31586373,0.2561147,1.0183302,1.049976,0.5992394,0.34931248,0.95704234,0.9219979,0.22853084,0.09719422,0.8164376,0.19726767,-0.07585962,-0.1942379,0.10616694,-0.29317704,-0.46396726,-0.56850815,-0.040054727,853.8095,802.23444,805.05493,862.27106,702.71063,-0.2294921875,-0.00518798828125,0.99053955078125,5.30853271484375,3.21502685546875,-3.66363525390625,1,1.0,1.0,1.0,1.0,50.00
2022-11-23 20:24:32.081,0.8812007,0.31586373,0.2561147,1.0183302,1.049976,0.5992394,0.34931248,0.95704234,0.9219979,0.22853084,0.09719422,0.8164376,0.19726767,-0.07585962,-0.1942379,0.10616694,-0.29317704,-0.46396726,-0.56850815,-0.040054727,879.19415,802.23444,800.6227,877.1795,872.74725,-0.2294921875,-0.00518798828125,0.99053955078125,5.30853271484375,3.21502685546875,-3.66363525390625,1,1.0,1.0,1.0,1.0,50.00
2022-11-23 20:24:32.082,0.8812007,0.31586373,0.2561147,1.0183302,1.049976,0.5992394,0.34931248,0.95704234,0.9219979,0.22853084,0.09719422,0.8164376,0.19726767,-0.07585962,-0.1942379,0.10616694,-0.29317704,-0.46396726,-0.56850815,-0.040054727,850.989,803.8461,801.02563,853.00366,957.3626,-0.2294921875,-0.00518798828125,0.99053955078125,5.30853271484375,3.21502685546875,-3.66363525390625,1,1.0,1.0,1.0,1.0,50.00
2022-11-23 20:24:32.082,0.8812007,0.31586373,0.2561147,1.0183302,1.049976,0.5992394,0.34931248,0.95704234,0.9219979,0.22853084,0.09719422,0.8164376,0.19726767,-0.07585962,-0.1942379,0.10616694,-0.29317704,-0.46396726,-0.56850815,-0.040054727,824.3956,805.4579,803.8461,830.84247,771.2088,-0.2294921875,-0.00518798828125,0.99053955078125,5.30853271484375,3.21502685546875,-3.66363525390625,1,1.0,1.0,1.0,1.0,50.00
2022-11-23 20:24:32.082,0.8812007,0.31586373,0.2561147,1.0183302,1.049976,0.5992394,0.34931248,0.95704234,0.9219979,0.22853084,0.09719422,0.8164376,0.19726767,-0.07585962,-0.1942379,0.10616694,-0.29317704,-0.46396726,-0.56850815,-0.040054727,843.3333,803.44324,802.23444,844.1392,692.6374,-0.2294921875,-0.00518798828125,0.99053955078125,5.30853271484375,3.21502685546875,-3.66363525390625,1,1.0,1.0,1.0,1.0,50.00
2022-11-23 20:24:32.082,0.8812007,0.31586373,0.2561147,1.0183302,1.049976,0.5992394,0.34931248,0.95704234,0.9219979,0.22853084,0.09719422,0.8164376,0.19726767,-0.07585962,-0.1942379,0.10616694,-0.29317704,-0.46396726,-0.56850815,-0.040054727,871.53845,799.011,802.6374,867.50916,884.0293,-0.2294921875,-0.00518798828125,0.99053955078125,5.30853271484375,3.21502685546875,-3.66363525390625,1,1.0,1.0,1.0,1.0,50.00
2022-11-23 20:24:32.083,0.8812007,0.31586373,0.2561147,1.0183302,1.049976,0.5992394,0.34931248,0.95704234,0.9219979,0.22853084,0.09719422,0.8164376,0.19726767,-0.07585962,-0.1942379,0.10616694,-0.29317704,-0.46396726,-0.56850815,-0.040054727,863.0769,796.5934,804.65204,866.30035,1132.6373,-0.2294921875,-0.00518798828125,0.99053955078125,5.30853271484375,3.21502685546875,-3.66363525390625,1,1.0,1.0,1.0,1.0,50.00
2022-11-23 20:24:32.083,0.8812007,0.31586373,0.2561147,1.0183302,1.049976,0.5992394,0.34931248,0.95704234,0.9219979,0.22853084,0.09719422,0.8164376,0.19726767,-0.07585962,-0.1942379,0.10616694,-0.29317704,-0.46396726,-0.56850815,-0.040054727,828.8278,803.44324,807.0696,838.49817,970.2564,-0.2294921875,-0.00518798828125,0.99053955078125,5.30853271484375,3.21502685546875,-3.66363525390625,1,1.0,1.0,1.0,1.0,50.00
2022-11-23 20:24:32.083,0.8812007,0.31586373,0.2561147,1.0183302,1.049976,0.5992394,0.34931248,0.95704234,0.9219979,0.22853084,0.09719422,0.8164376,0.19726767,-0.07585962,-0.1942379,0.10616694,-0.29317704,-0.46396726,-0.56850815,-0.040054727,825.6044,806.26373,807.0696,833.663,714.3956,-0.2294921875,-0.00518798828125,0.99053955078125,5.30853271484375,3.21502685546875,-3.66363525390625,1,1.0,1.0,1.0,1.0,50.00
2022-11-23 20:24:32.136,0.8812007,0.31586373,0.2561147,1.0183302,1.049976,0.5992394,0.34931248,0.95704234,0.9219979,0.22853084,0.09719422,0.8164376,0.19726767,-0.07585962,-0.1942379,0.10616694,-0.29317704,-0.46396726,-0.56850815,-0.040054727,856.63007,805.4579,809.89014,857.8388,824.3956,-0.229736328125,-0.00494384765625,0.9892578125,4.957122802734375,0.61309814453125,0.777587890625,1,1.0,1.0,1.0,1.0,50.00
2022-11-23 20:24:32.137,0.8812007,0.31586373,0.2561147,1.0183302,1.049976,0.5992394,0.34931248,0.95704234,0.9219979,0.22853084,0.09719422,0.8164376,0.19726767,-0.07585962,-0.1942379,0.10616694,-0.29317704,-0.46396726,-0.56850815,-0.040054727,871.13556,806.6667,811.9048,860.2564,867.1062,-0.229736328125,-0.00494384765625,0.9892578125,4.957122802734375,0.61309814453125,0.777587890625,1,1.0,1.0,1.0,1.0,50.00
2022-11-23 20:24:32.137,0.8812007,0.31586373,0.2561147,1.0183302,1.049976,0.5992394,0.34931248,0.95704234,0.9219979,0.22853084,0.09719422,0.8164376,0.19726767,-0.07585962,-0.1942379,0.10616694,-0.29317704,-0.46396726,-0.56850815,-0.040054727,839.304,807.8755,805.4579,836.08057,689.011,-0.229736328125,-0.00494384765625,0.9892578125,4.957122802734375,0.61309814453125,0.777587890625,1,1.0,1.0,1.0,1.0,50.00
2022-11-23 20:24:32.137,0.8812007,0.31586373,0.2561147,1.0183302,1.049976,0.5992394,0.34931248,0.95704234,0.9219979,0.22853084,0.09719422,0.8164376,0.19726767,-0.07585962,-0.1942379,0.10616694,-0.29317704,-0.46396726,-0.56850815,-0.040054727,813.91943,807.8755,807.0696,830.84247,577.3993,-0.229736328125,-0.00494384765625,0.9892578125,4.957122802734375,0.61309814453125,0.777587890625,1,1.0,1.0,1.0,1.0,50.00
2022-11-23 20:24:32.137,0.8812007,0.31586373,0.2561147,1.0183302,1.049976,0.5992394,0.34931248,0.95704234,0.9219979,0.22853084,0.09719422,0.8164376,0.19726767,-0.07585962,-0.1942379,0.10616694,-0.29317704,-0.46396726,-0.56850815,-0.040054727,838.9011,804.65204,812.71063,854.21246,747.8388,-0.229736328125,-0.00494384765625,0.9892578125,4.957122802734375,0.61309814453125,0.777587890625,1,1.0,1.0,1.0,1.0,50.00
2022-11-23 20:24:32.137,0.8812007,0.31586373,0.2561147,1.0183302,1.049976,0.5992394,0.34931248,0.95704234,0.9219979,0.22853084,0.09719422,0.8164376,0.19726767,-0.07585962,-0.1942379,0.10616694,-0.29317704,-0.46396726,-0.56850815,-0.040054727,857.4359,803.0403,809.89014,864.2857,958.5714,-0.229736328125,-0.00494384765625,0.9892578125,4.957122802734375,0.61309814453125,0.777587890625,1,1.0,1.0,1.0,1.0,50.00
2022-11-23 20:24:32.138,0.8812007,0.31586373,0.2561147,1.0183302,1.049976,0.5992394,0.34931248,0.95704234,0.9219979,0.22853084,0.09719422,0.8164376,0.19726767,-0.07585962,-0.1942379,0.10616694,-0.29317704,-0.46396726,-0.56850815,-0.040054727,830.84247,806.6667,805.8608,839.304,870.32965,-0.229736328125,-0.00494384765625,0.9892578125,4.957122802734375,0.61309814453125,0.777587890625,1,1.0,1.0,1.0,1.0,50.00
2022-11-23 20:24:32.138,0.8812007,0.31586373,0.2561147,1.0183302,1.049976,0.5992394,0.34931248,0.95704234,0.9219979,0.22853084,0.09719422,0.8164376,0.19726767,-0.07585962,-0.1942379,0.10616694,-0.29317704,-0.46396726,-0.56850815,-0.040054727,805.4579,806.26373,806.26373,815.9341,664.0293,-0.229736328125,-0.00494384765625,0.9892578125,4.957122802734375,0.61309814453125,0.777587890625,1,1.0,1.0,1.0,1.0,50.00
2022-11-23 20:24:32.138,0.8812007,0.31586373,0.2561147,1.0183302,1.049976,0.5992394,0.34931248,0.95704234,0.9219979,0.22853084,0.09719422,0.8164376,0.19726767,-0.07585962,-0.1942379,0.10616694,-0.29317704,-0.46396726,-0.56850815,-0.040054727,827.619,804.2491,807.47253,830.84247,849.3773,-0.229736328125,-0.00494384765625,0.9892578125,4.957122802734375,0.61309814453125,0.777587890625,1,1.0,1.0,1.0,1.0,50.00
2022-11-23 20:24:32.138,0.8812007,0.31586373,0.2561147,1.0183302,1.049976,0.5992394,0.34931248,0.95704234,0.9219979,0.22853084,0.09719422,0.8164376,0.19726767,-0.07585962,-0.1942379,0.10616694,-0.29317704,-0.46396726,-0.56850815,-0.040054727,853.8095,802.6374,805.8608,847.3626,1207.5824,-0.229736328125,-0.00494384765625,0.9892578125,4.957122802734375,0.61309814453125,0.777587890625,1,1.0,1.0,1.0,1.0,50.00
2022-11-23 20:24:32.139,0.8812007,0.31586373,0.2561147,1.0183302,1.049976,0.5992394,0.34931248,0.95704234,0.9219979,0.22853084,0.09719422,0.8164376,0.19726767,-0.07585962,-0.1942379,0.10616694,-0.29317704,-0.46396726,-0.56850815,-0.040054727,834.0659,802.23444,803.44324,830.4396,942.4542,-0.229736328125,-0.00494384765625,0.9892578125,4.957122802734375,0.61309814453125,0.777587890625,1,1.0,1.0,1.0,1.0,50.00
2022-11-23 20:24:32.139,0.83085424,0.32938787,0.28066188,0.99067485,0.95249206,0.5613553,0.34161967,0.90280104,0.82375973,0.22917278,0.08427813,0.72861457,0.19019769,-0.07007347,-0.20206301,0.09537757,-0.29713798,-0.44005027,-0.57547086,-0.034788758,801.4286,804.65204,800.2198,808.68134,619.707,-0.229736328125,-0.00494384765625,0.9892578125,4.957122802734375,0.61309814453125,0.777587890625,1,1.0,1.0,1.0,1.0,50.00
2022-11-23 20:24:32.163,0.83085424,0.32938787,0.28066188,0.99067485,0.95249206,0.5613553,0.34161967,0.90280104,0.82375973,0.22917278,0.08427813,0.72861457,0.19019769,-0.07007347,-0.20206301,0.09537757,-0.29713798,-0.44005027,-0.57547086,-0.034788758,807.8755,803.44324,802.23444,815.12823,682.96704,-0.2333984375,-0.00408935546875,0.99041748046875,4.42626953125,1.353302001953125,1.4654541015625,1,1.0,1.0,1.0,1.0,50.00
2022-11-23 20:24:32.164,0.83085424,0.32938787,0.28066188,0.99067485,0.95249206,0.5613553,0.34161967,0.90280104,0.82375973,0.22917278,0.08427813,0.72861457,0.19019769,-0.07007347,-0.20206301,0.09537757,-0.29713798,-0.44005027,-0.57547086,-0.034788758,842.52747,800.6227,804.65204,836.8865,770.80585,-0.2333984375,-0.00408935546875,0.99041748046875,4.42626953125,1.353302001953125,1.4654541015625,1,1.0,1.0,1.0,1.0,50.00
2022-11-23 20:24:32.164,0.83085424,0.32938787,0.28066188,0.99067485,0.95249206,0.5613553,0.34161967,0.90280104,0.82375973,0.22917278,0.08427813,0.72861457,0.19019769,-0.07007347,-0.20206301,0.09537757,-0.29713798,-0.44005027,-0.57547086,-0.034788758,835.6777,796.5934,803.8461,831.2454,753.47986,-0.2333984375,-0.00408935546875,0.99041748046875,4.42626953125,1.353302001953125,1.4654541015625,1,1.0,1.0,1.0,1.0,50.00
2022-11-23 20:24:32.164,0.83085424,0.32938787,0.28066188,0.99067485,0.95249206,0.5613553,0.34161967,0.90280104,0.82375973,0.22917278,0.08427813,0.72861457,0.19019769,-0.07007347,-0.20206301,0.09537757,-0.29713798,-0.44005027,-0.57547086,-0.034788758,796.1905,796.1905,801.8315,807.0696,671.685,-0.2333984375,-0.00408935546875,0.99041748046875,4.42626953125,1.353302001953125,1.4654541015625,1,1.0,1.0,1.0,1.0,50.00
2022-11-23 20:24:32.165,0.83085424,0.32938787,0.28066188,0.99067485,0.95249206,0.5613553,0.34161967,0.90280104,0.82375973,0.22917278,0.08427813,0.72861457,0.19019769,-0.07007347,-0.20206301,0.09537757,-0.29713798,-0.44005027,-0.57547086,-0.034788758,801.02563,799.81683,802.23444,811.50183,664.83514,-0.2333984375,-0.00408935546875,0.99041748046875,4.42626953125,1.353302001953125,1.4654541015625,1,1.0,1.0,1.0,1.0,50.00
2022-11-23 20:24:32.165,0.83085424,0.32938787,0.28066188,0.99067485,0.95249206,0.5613553,0.34161967,0.90280104,0.82375973,0.22917278,0.08427813,0.72861457,0.19019769,-0.07007347,-0.20206301,0.09537757,-0.29713798,-0.44005027,-0.57547086,-0.034788758,838.9011,803.8461,806.6667,834.0659,820.3663,-0.2333984375,-0.00408935546875,0.99041748046875,4.42626953125,1.353302001953125,1.4654541015625,1,1.0,1.0,1.0,1.0,50.00
2022-11-23 20:24:32.165,0.83085424,0.32938787,0.28066188,0.99067485,0.95249206,0.5613553,0.34161967,0.90280104,0.82375973,0.22917278,0.08427813,0.72861457,0.19019769,-0.07007347,-0.20206301,0.09537757,-0.29713798,-0.44005027,-0.57547086,-0.034788758,849.7802,807.47253,805.4579,826.8132,882.8205,-0.2333984375,-0.00408935546875,0.99041748046875,4.42626953125,1.353302001953125,1.4654541015625,1,1.0,1.0,1.0,1.0,50.00
2022-11-23 20:24:32.166,0.83085424,0.32938787,0.28066188,0.99067485,0.95249206,0.5613553,0.34161967,0.90280104,0.82375973,0.22917278,0.08427813,0.72861457,0.19019769,-0.07007347,-0.20206301,0.09537757,-0.29713798,-0.44005027,-0.57547086,-0.034788758,820.3663,805.8608,801.02563,807.0696,718.022,-0.2333984375,-0.00408935546875,0.99041748046875,4.42626953125,1.353302001953125,1.4654541015625,1,1.0,1.0,1.0,1.0,50.00
2022-11-23 20:24:32.166,0.83085424,0.32938787,0.28066188,0.99067485,0.95249206,0.5613553,0.34161967,0.90280104,0.82375973,0.22917278,0.08427813,0.72861457,0.19019769,-0.07007347,-0.20206301,0.09537757,-0.29713798,-0.44005027,-0.57547086,-0.034788758,803.44324,806.26373,804.65204,813.91943,751.8681,-0.2333984375,-0.00408935546875,0.99041748046875,4.42626953125,1.353302001953125,1.4654541015625,1,1.0,1.0,1.0,1.0,50.00
2022-11-23 20:24:32.166,0.83085424,0.32938787,0.28066188,0.99067485,0.95249206,0.5613553,0.34161967,0.90280104,0.82375973,0.22917278,0.08427813,0.72861457,0.19019769,-0.07007347,-0.20206301,0.09537757,-0.29713798,-0.44005027,-0.57547086,-0.034788758,829.6337,805.05493,809.4872,834.4689,835.2747,-0.2333984375,-0.00408935546875,0.99041748046875,4.42626953125,1.353302001953125,1.4654541015625,1,1.0,1.0,1.0,1.0,50.00
2022-11-23 20:24:32.166,0.83085424,0.32938787,0.28066188,0.99067485,0.95249206,0.5613553,0.34161967,0.90280104,0.82375973,0.22917278,0.08427813,0.72861457,0.19019769,-0.07007347,-0.20206301,0.09537757,-0.29713798,-0.44005027,-0.57547086,-0.034788758,854.21246,803.44324,804.65204,841.31866,803.8461,-0.2333984375,-0.00408935546875,0.99041748046875,4.42626953125,1.353302001953125,1.4654541015625,1,1.0,1.0,1.0,1.0,50.00
2022-11-23 20:24:32.166,0.83085424,0.32938787,0.28066188,0.99067485,0.95249206,0.5613553,0.34161967,0.90280104,0.82375973,0.22917278,0.08427813,0.72861457,0.19019769,-0.07007347,-0.20206301,0.09537757,-0.29713798,-0.44005027,-0.57547086,-0.034788758,830.84247,806.6667,800.2198,818.7546,746.2271,-0.2333984375,-0.00408935546875,0.99041748046875,4.42626953125,1.353302001953125,1.4654541015625,1,1.0,1.0,1.0,1.0,50.00
2022-11-23 20:24:32.217,0.83085424,0.32938787,0.28066188,0.99067485,0.95249206,0.5613553,0.34161967,0.90280104,0.82375973,0.22917278,0.08427813,0.72861457,0.19019769,-0.07007347,-0.20206301,0.09537757,-0.29713798,-0.44005027,-0.57547086,-0.034788758,801.8315,805.05493,804.2491,798.60803,643.8828,-0.24652099609375,-0.01019287109375,0.989501953125,2.684173583984375,0.5084228515625,0.575714111328125,1,1.0,1.0,1.0,1.0,50.00
2022-11-23 20:24:32.218,0.83085424,0.32938787,0.28066188,0.99067485,0.95249206,0.5613553,0.34161967,0.90280104,0.82375973,0.22917278,0.08427813,0.72861457,0.19019769,-0.07007347,-0.20206301,0.09537757,-0.29713798,-0.44005027,-0.57547086,-0.034788758,823.1868,804.2491,807.8755,819.5604,673.2967,-0.24652099609375,-0.01019287109375,0.989501953125,2.684173583984375,0.5084228515625,0.575714111328125,1,1.0,1.0,1.0,1.0,50.00
2022-11-23 20:24:32.218,0.83085424,0.32938787,0.28066188,0.99067485,0.95249206,0.5613553,0.34161967,0.90280104,0.82375973,0.22917278,0.08427813,0.72861457,0.19019769,-0.07007347,-0.20206301,0.09537757,-0.29713798,-0.44005027,-0.57547086,-0.034788758,851.79486,807.0696,808.68134,850.18317,819.5604,-0.24652099609375,-0.01019287109375,0.989501953125,2.684173583984375,0.5084228515625,0.575714111328125,1,1.0,1.0,1.0,1.0,50.00
2022-11-23 20:24:32.218,0.83085424,0.32938787,0.28066188,0.99067485,0.95249206,0.5613553,0.34161967,0.90280104,0.82375973,0.22917278,0.08427813,0.72861457,0.19019769,-0.07007347,-0.20206301,0.09537757,-0.29713798,-0.44005027,-0.57547086,-0.034788758,836.08057,809.4872,809.0842,840.5128,903.36993,-0.24652099609375,-0.01019287109375,0.989501953125,2.684173583984375,0.5084228515625,0.575714111328125,1,1.0,1.0,1.0,1.0,50.00
2022-11-23 20:24:32.219,0.83085424,0.32938787,0.28066188,0.99067485,0.95249206,0.5613553,0.34161967,0.90280104,0.82375973,0.22917278,0.08427813,0.72861457,0.19019769,-0.07007347,-0.20206301,0.09537757,-0.29713798,-0.44005027,-0.57547086,-0.034788758,802.23444,809.4872,806.6667,808.68134,761.53845,-0.24652099609375,-0.01019287109375,0.989501953125,2.684173583984375,0.5084228515625,0.575714111328125,1,1.0,1.0,1.0,1.0,50.00
2022-11-23 20:24:32.219,0.83085424,0.32938787,0.28066188,0.99067485,0.95249206,0.5613553,0.34161967,0.90280104,0.82375973,0.22917278,0.08427813,0.72861457,0.19019769,-0.07007347,-0.20206301,0.09537757,-0.29713798,-0.44005027,-0.57547086,-0.034788758,808.2784,810.696,805.8608,806.6667,695.4579,-0.24652099609375,-0.01019287109375,0.989501953125,2.684173583984375,0.5084228515625,0.575714111328125,1,1.0,1.0,1.0,1.0,50.00
2022-11-23 20:24:32.220,0.83085424,0.32938787,0.28066188,0.99067485,0.95249206,0.5613553,0.34161967,0.90280104,0.82375973,0.22917278,0.08427813,0.72861457,0.19019769,-0.07007347,-0.20206301,0.09537757,-0.29713798,-0.44005027,-0.57547086,-0.034788758,840.9158,810.293,804.2491,836.08057,829.2308,-0.24652099609375,-0.01019287109375,0.989501953125,2.684173583984375,0.5084228515625,0.575714111328125,1,1.0,1.0,1.0,1.0,50.00
2022-11-23 20:24:32.220,0.83085424,0.32938787,0.28066188,0.99067485,0.95249206,0.5613553,0.34161967,0.90280104,0.82375973,0.22917278,0.08427813,0.72861457,0.19019769,-0.07007347,-0.20206301,0.09537757,-0.29713798,-0.44005027,-0.57547086,-0.034788758,842.52747,808.2784,801.02563,837.6923,992.4176,-0.24652099609375,-0.01019287109375,0.989501953125,2.684173583984375,0.5084228515625,0.575714111328125,1,1.0,1.0,1.0,1.0,50.00
2022-11-23 20:24:32.220,0.83085424,0.32938787,0.28066188,0.99067485,0.95249206,0.5613553,0.34161967,0.90280104,0.82375973,0.22917278,0.08427813,0.72861457,0.19019769,-0.07007347,-0.20206301,0.09537757,-0.29713798,-0.44005027,-0.57547086,-0.034788758,804.2491,806.6667,801.8315,803.0403,908.60803,-0.24652099609375,-0.01019287109375,0.989501953125,2.684173583984375,0.5084228515625,0.575714111328125,1,1.0,1.0,1.0,1.0,50.00
2022-11-23 20:24:32.221,0.83085424,0.32938787,0.28066188,0.99067485,0.95249206,0.5613553,0.34161967,0.90280104,0.82375973,0.22917278,0.08427813,0.72861457,0.19019769,-0.07007347,-0.20206301,0.09537757,-0.29713798,-0.44005027,-0.57547086,-0.034788758,790.9524,803.0403,802.23444,799.41394,616.8865,-0.24652099609375,-0.01019287109375,0.989501953125,2.684173583984375,0.5084228515625,0.575714111328125,1,1.0,1.0,1.0,1.0,50.00
2022-11-23 20:24:32.221,0.83085424,0.32938787,0.28066188,0.99067485,0.95249206,0.5613553,0.34161967,0.90280104,0.82375973,0.22917278,0.08427813,0.72861457,0.19019769,-0.07007347,-0.20206301,0.09537757,-0.29713798,-0.44005027,-0.57547086,-0.034788758,829.6337,801.8315,801.8315,825.6044,720.84247,-0.24652099609375,-0.01019287109375,0.989501953125,2.684173583984375,0.5084228515625,0.575714111328125,1,1.0,1.0,1.0,1.0,50.00
2022-11-23 20:24:32.221,0.83085424,0.32938787,0.28066188,0.99067485,0.95249206,0.5613553,0.34161967,0.90280104,0.82375973,0.22917278,0.08427813,0.72861457,0.19019769,-0.07007347,-0.20206301,0.09537757,-0.29713798,-0.44005027,-0.57547086,-0.034788758,850.989,806.26373,803.0403,840.9158,841.7216,-0.24652099609375,-0.01019287109375,0.989501953125,2.684173583984375,0.5084228515625,0.575714111328125,1,1.0,1.0,1.0,1.0,50.00
2022-11-23 20:24:32.266,0.83085424,0.32938787,0.28066188,0.99067485,0.95249206,0.5613553,0.34161967,0.90280104,0.82375973,0.22917278,0.08427813,0.72861457,0.19019769,-0.07007347,-0.20206301,0.09537757,-0.29713798,-0.44005027,-0.57547086,-0.034788758,819.5604,809.4872,807.47253,817.9487,733.3333,-0.24652099609375,-0.01019287109375,0.989501953125,2.684173583984375,0.5084228515625,0.575714111328125,1,1.0,1.0,1.0,1.0,50.00
2022-11-23 20:24:32.266,0.76017976,0.39263445,0.32465413,0.96091104,0.84511524,0.53226817,0.36888292,0.8641098,0.64902043,0.29722488,0.06797105,0.5521837,0.18433602,-0.06845701,-0.21075746,0.086501695,-0.30166677,-0.41907263,-0.58328015,-0.031813454,800.6227,809.0842,811.0989,806.26373,591.9048,-0.24652099609375,-0.01019287109375,0.989501953125,2.684173583984375,0.5084228515625,0.575714111328125,1,1.0,1.0,1.0,1.0,50.00
2022-11-23 20:24:32.268,0.76017976,0.39263445,0.32465413,0.96091104,0.84511524,0.53226817,0.36888292,0.8641098,0.64902043,0.29722488,0.06797105,0.5521837,0.18433602,-0.06845701,-0.21075746,0.086501695,-0.30166677,-0.41907263,-0.58328015,-0.031813454,820.7692,805.8608,805.8608,831.2454,724.0659,-0.24652099609375,-0.01019287109375,0.989501953125,2.684173583984375,0.5084228515625,0.575714111328125,1,1.0,1.0,1.0,1.0,50.00
2022-11-23 20:24:32.268,0.76017976,0.39263445,0.32465413,0.96091104,0.84511524,0.53226817,0.36888292,0.8641098,0.64902043,0.29722488,0.06797105,0.5521837,0.18433602,-0.06845701,-0.21075746,0.086501695,-0.30166677,-0.41907263,-0.58328015,-0.031813454,848.1685,805.4579,811.0989,850.58606,985.16486,-0.24652099609375,-0.01019287109375,0.989501953125,2.684173583984375,0.5084228515625,0.575714111328125,1,1.0,1.0,1.0,1.0,50.00
2022-11-23 20:24:32.268,0.76017976,0.39263445,0.32465413,0.96091104,0.84511524,0.53226817,0.36888292,0.8641098,0.64902043,0.29722488,0.06797105,0.5521837,0.18433602,-0.06845701,-0.21075746,0.086501695,-0.30166677,-0.41907263,-0.58328015,-0.031813454,835.2747,808.2784,810.293,838.49817,902.96704,-0.24652099609375,-0.01019287109375,0.989501953125,2.684173583984375,0.5084228515625,0.575714111328125,1,1.0,1.0,1.0,1.0,50.00
2022-11-23 20:24:32.268,0.76017976,0.39263445,0.32465413,0.96091104,0.84511524,0.53226817,0.36888292,0.8641098,0.64902043,0.29722488,0.06797105,0.5521837,0.18433602,-0.06845701,-0.21075746,0.086501695,-0.30166677,-0.41907263,-0.58328015,-0.031813454,797.8022,809.89014,801.4286,803.44324,734.1392,-0.24652099609375,-0.01019287109375,0.989501953125,2.684173583984375,0.5084228515625,0.575714111328125,1,1.0,1.0,1.0,1.0,50.00
2022-11-23 20:24:32.269,0.76017976,0.39263445,0.32465413,0.96091104,0.84511524,0.53226817,0.36888292,0.8641098,0.64902043,0.29722488,0.06797105,0.5521837,0.18433602,-0.06845701,-0.21075746,0.086501695,-0.30166677,-0.41907263,-0.58328015,-0.031813454,807.47253,811.50183,799.81683,802.6374,813.5165,-0.24652099609375,-0.01019287109375,0.989501953125,2.684173583984375,0.5084228515625,0.575714111328125,1,1.0,1.0,1.0,1.0,50.00
2022-11-23 20:24:32.269,0.76017976,0.39263445,0.32465413,0.96091104,0.84511524,0.53226817,0.36888292,0.8641098,0.64902043,0.29722488,0.06797105,0.5521837,0.18433602,-0.06845701,-0.21075746,0.086501695,-0.30166677,-0.41907263,-0.58328015,-0.031813454,841.31866,814.3223,798.20514,829.6337,1144.3224,-0.24652099609375,-0.01019287109375,0.989501953125,2.684173583984375,0.5084228515625,0.575714111328125,1,1.0,1.0,1.0,1.0,50.00
2022-11-23 20:24:32.269,0.76017976,0.39263445,0.32465413,0.96091104,0.84511524,0.53226817,0.36888292,0.8641098,0.64902043,0.29722488,0.06797105,0.5521837,0.18433602,-0.06845701,-0.21075746,0.086501695,-0.30166677,-0.41907263,-0.58328015,-0.031813454,825.2015,811.9048,794.9817,816.7399,1080.2565,-0.24652099609375,-0.01019287109375,0.989501953125,2.684173583984375,0.5084228515625,0.575714111328125,1,1.0,1.0,1.0,1.0,50.00
2022-11-23 20:24:32.269,0.76017976,0.39263445,0.32465413,0.96091104,0.84511524,0.53226817,0.36888292,0.8641098,0.64902043,0.29722488,0.06797105,0.5521837,0.18433602,-0.06845701,-0.21075746,0.086501695,-0.30166677,-0.41907263,-0.58328015,-0.031813454,785.31134,808.2784,794.9817,787.326,697.0696,-0.24652099609375,-0.01019287109375,0.989501953125,2.684173583984375,0.5084228515625,0.575714111328125,1,1.0,1.0,1.0,1.0,50.00
2022-11-23 20:24:32.270,0.76017976,0.39263445,0.32465413,0.96091104,0.84511524,0.53226817,0.36888292,0.8641098,0.64902043,0.29722488,0.06797105,0.5521837,0.18433602,-0.06845701,-0.21075746,0.086501695,-0.30166677,-0.41907263,-0.58328015,-0.031813454,787.72894,803.8461,796.99634,795.78754,686.5934,-0.24652099609375,-0.01019287109375,0.989501953125,2.684173583984375,0.5084228515625,0.575714111328125,1,1.0,1.0,1.0,1.0,50.00
2022-11-23 20:24:32.270,0.76017976,0.39263445,0.32465413,0.96091104,0.84511524,0.53226817,0.36888292,0.8641098,0.64902043,0.29722488,0.06797105,0.5521837,0.18433602,-0.06845701,-0.21075746,0.086501695,-0.30166677,-0.41907263,-0.58328015,-0.031813454,825.6044,805.4579,801.02563,828.8278,861.8681,-0.24652099609375,-0.01019287109375,0.989501953125,2.684173583984375,0.5084228515625,0.575714111328125,1,1.0,1.0,1.0,1.0,50.00
2022-11-23 20:24:32.329,0.76017976,0.39263445,0.32465413,0.96091104,0.84511524,0.53226817,0.36888292,0.8641098,0.64902043,0.29722488,0.06797105,0.5521837,0.18433602,-0.06845701,-0.21075746,0.086501695,-0.30166677,-0.41907263,-0.58328015,-0.031813454,827.619,807.8755,803.8461,826.8132,838.0952,-0.230224609375,-0.0162353515625,0.99310302734375,2.429962158203125,0.64300537109375,-1.42059326171875,1,1.0,1.0,1.0,1.0,50.00
2022-11-23 20:24:32.329,0.76017976,0.39263445,0.32465413,0.96091104,0.84511524,0.53226817,0.36888292,0.8641098,0.64902043,0.29722488,0.06797105,0.5521837,0.18433602,-0.06845701,-0.21075746,0.086501695,-0.30166677,-0.41907263,-0.58328015,-0.031813454,792.5641,806.26373,802.23444,791.3553,684.17584,-0.230224609375,-0.0162353515625,0.99310302734375,2.429962158203125,0.64300537109375,-1.42059326171875,1,1.0,1.0,1.0,1.0,50.00
2022-11-23 20:24:32.329,0.76017976,0.39263445,0.32465413,0.96091104,0.84511524,0.53226817,0.36888292,0.8641098,0.64902043,0.29722488,0.06797105,0.5521837,0.18433602,-0.06845701,-0.21075746,0.086501695,-0.30166677,-0.41907263,-0.58328015,-0.031813454,782.8938,806.6667,801.4286,787.72894,655.16486,-0.230224609375,-0.0162353515625,0.99310302734375,2.429962158203125,0.64300537109375,-1.42059326171875,1,1.0,1.0,1.0,1.0,50.00
2022-11-23 20:24:32.330,0.76017976,0.39263445,0.32465413,0.96091104,0.84511524,0.53226817,0.36888292,0.8641098,0.64902043,0.29722488,0.06797105,0.5521837,0.18433602,-0.06845701,-0.21075746,0.086501695,-0.30166677,-0.41907263,-0.58328015,-0.031813454,817.9487,806.6667,805.4579,820.7692,779.67035,-0.230224609375,-0.0162353515625,0.99310302734375,2.429962158203125,0.64300537109375,-1.42059326171875,1,1.0,1.0,1.0,1.0,50.00
2022-11-23 20:24:32.330,0.76017976,0.39263445,0.32465413,0.96091104,0.84511524,0.53226817,0.36888292,0.8641098,0.64902043,0.29722488,0.06797105,0.5521837,0.18433602,-0.06845701,-0.21075746,0.086501695,-0.30166677,-0.41907263,-0.58328015,-0.031813454,838.9011,804.65204,802.6374,830.4396,872.74725,-0.230224609375,-0.0162353515625,0.99310302734375,2.429962158203125,0.64300537109375,-1.42059326171875,1,1.0,1.0,1.0,1.0,50.00
2022-11-23 20:24:32.330,0.76017976,0.39263445,0.32465413,0.96091104,0.84511524,0.53226817,0.36888292,0.8641098,0.64902043,0.29722488,0.06797105,0.5521837,0.18433602,-0.06845701,-0.21075746,0.086501695,-0.30166677,-0.41907263,-0.58328015,-0.031813454,803.44324,804.65204,797.8022,800.6227,783.2967,-0.230224609375,-0.0162353515625,0.99310302734375,2.429962158203125,0.64300537109375,-1.42059326171875,1,1.0,1.0,1.0,1.0,50.00
2022-11-23 20:24:32.330,0.76017976,0.39263445,0.32465413,0.96091104,0.84511524,0.53226817,0.36888292,0.8641098,0.64902043,0.29722488,0.06797105,0.5521837,0.18433602,-0.06845701,-0.21075746,0.086501695,-0.30166677,-0.41907263,-0.58328015,-0.031813454,778.86444,803.0403,798.20514,790.54944,838.0952,-0.230224609375,-0.0162353515625,0.99310302734375,2.429962158203125,0.64300537109375,-1.42059326171875,1,1.0,1.0,1.0,1.0,50.00
2022-11-23 20:24:32.331,0.76017976,0.39263445,0.32465413,0.96091104,0.84511524,0.53226817,0.36888292,0.8641098,0.64902043,0.29722488,0.06797105,0.5521837,0.18433602,-0.06845701,-0.21075746,0.086501695,-0.30166677,-0.41907263,-0.58328015,-0.031813454,809.89014,805.4579,798.60803,811.9048,1042.381,-0.230224609375,-0.0162353515625,0.99310302734375,2.429962158203125,0.64300537109375,-1.42059326171875,1,1.0,1.0,1.0,1.0,50.00
2022-11-23 20:24:32.331,0.76017976,0.39263445,0.32465413,0.96091104,0.84511524,0.53226817,0.36888292,0.8641098,0.64902043,0.29722488,0.06797105,0.5521837,0.18433602,-0.06845701,-0.21075746,0.086501695,-0.30166677,-0.41907263,-0.58328015,-0.031813454,844.94507,809.0842,804.2491,827.2161,935.2015,-0.230224609375,-0.0162353515625,0.99310302734375,2.429962158203125,0.64300537109375,-1.42059326171875,1,1.0,1.0,1.0,1.0,50.00
2022-11-23 20:24:32.331,0.76017976,0.39263445,0.32465413,0.96091104,0.84511524,0.53226817,0.36888292,0.8641098,0.64902043,0.29722488,0.06797105,0.5521837,0.18433602,-0.06845701,-0.21075746,0.086501695,-0.30166677,-0.41907263,-0.58328015,-0.031813454,815.12823,808.2784,805.8608,811.50183,734.5421,-0.230224609375,-0.0162353515625,0.99310302734375,2.429962158203125,0.64300537109375,-1.42059326171875,1,1.0,1.0,1.0,1.0,50.00
2022-11-23 20:24:32.331,0.76017976,0.39263445,0.32465413,0.96091104,0.84511524,0.53226817,0.36888292,0.8641098,0.64902043,0.29722488,0.06797105,0.5521837,0.18433602,-0.06845701,-0.21075746,0.086501695,-0.30166677,-0.41907263,-0.58328015,-0.031813454,777.25275,811.0989,802.6374,779.67035,723.663,-0.230224609375,-0.0162353515625,0.99310302734375,2.429962158203125,0.64300537109375,-1.42059326171875,1,1.0,1.0,1.0,1.0,50.00
2022-11-23 20:24:32.331,0.76017976,0.39263445,0.32465413,0.96091104,0.84511524,0.53226817,0.36888292,0.8641098,0.64902043,0.29722488,0.06797105,0.5521837,0.18433602,-0.06845701,-0.21075746,0.086501695,-0.30166677,-0.41907263,-0.58328015,-0.031813454,792.5641,811.0989,804.2491,794.57874,795.78754,-0.230224609375,-0.0162353515625,0.99310302734375,2.429962158203125,0.64300537109375,-1.42059326171875,1,1.0,1.0,1.0,1.0,50.00
2022-11-23 20:24:32.355,0.76017976,0.39263445,0.32465413,0.96091104,0.84511524,0.53226817,0.36888292,0.8641098,0.64902043,0.29722488,0.06797105,0.5521837,0.18433602,-0.06845701,-0.21075746,0.086501695,-0.30166677,-0.41907263,-0.58328015,-0.031813454,829.2308,810.293,809.0842,825.6044,828.022,-0.23773193359375,-0.0283203125,0.989990234375,1.996307373046875,0.31402587890625,-2.87109375,1,1.0,1.0,1.0,1.0,50.00
2022-11-23 20:24:32.355,0.76017976,0.39263445,0.32465413,0.96091104,0.84511524,0.53226817,0.36888292,0.8641098,0.64902043,0.29722488,0.06797105,0.5521837,0.18433602,-0.06845701,-0.21075746,0.086501695,-0.30166677,-0.41907263,-0.58328015,-0.031813454,820.7692,807.8755,808.2784,811.50183,788.93774,-0.23773193359375,-0.0283203125,0.989990234375,1.996307373046875,0.31402587890625,-2.87109375,1,1.0,1.0,1.0,1.0,50.00
2022-11-23 20:24:32.355,0.76017976,0.39263445,0.32465413,0.96091104,0.84511524,0.53226817,0.36888292,0.8641098,0.64902043,0.29722488,0.06797105,0.5521837,0.18433602,-0.06845701,-0.21075746,0.086501695,-0.30166677,-0.41907263,-0.58328015,-0.031813454,776.04395,804.65204,805.8608,787.72894,686.1905,-0.23773193359375,-0.0283203125,0.989990234375,1.996307373046875,0.31402587890625,-2.87109375,1,1.0,1.0,1.0,1.0,50.00
2022-11-23 20:24:32.356,0.6787367,0.48289368,0.38361573,0.9348196,0.77840966,0.52419627,0.42442316,0.8559876,0.4391366,0.31504303,0.06688742,0.43107483,0.17967324,-0.0703627,-0.21867588,0.08205167,-0.30433664,-0.40161818,-0.59246135,-0.02898442,781.28204,806.26373,803.8461,798.20514,693.44324,-0.23773193359375,-0.0283203125,0.989990234375,1.996307373046875,0.31402587890625,-2.87109375,1,1.0,1.0,1.0,1.0,50.00
2022-11-23 20:24:32.357,0.6787367,0.48289368,0.38361573,0.9348196,0.77840966,0.52419627,0.42442316,0.8559876,0.4391366,0.31504303,0.06688742,0.43107483,0.17967324,-0.0703627,-0.21867588,0.08205167,-0.30433664,-0.40161818,-0.59246135,-0.02898442,824.7985,815.12823,804.65204,829.6337,777.25275,-0.23773193359375,-0.0283203125,0.989990234375,1.996307373046875,0.31402587890625,-2.87109375,1,1.0,1.0,1.0,1.0,50.00
2022-11-23 20:24:32.357,0.6787367,0.48289368,0.38361573,0.9348196,0.77840966,0.52419627,0.42442316,0.8559876,0.4391366,0.31504303,0.06688742,0.43107483,0.17967324,-0.0703627,-0.21867588,0.08205167,-0.30433664,-0.40161818,-0.59246135,-0.02898442,832.0513,811.0989,799.011,828.8278,884.83514,-0.23773193359375,-0.0283203125,0.989990234375,1.996307373046875,0.31402587890625,-2.87109375,1,1.0,1.0,1.0,1.0,50.00
2022-11-23 20:24:32.357,0.6787367,0.48289368,0.38361573,0.9348196,0.77840966,0.52419627,0.42442316,0.8559876,0.4391366,0.31504303,0.06688742,0.43107483,0.17967324,-0.0703627,-0.21867588,0.08205167,-0.30433664,-0.40161818,-0.59246135,-0.02898442,802.23444,807.0696,795.38464,803.8461,990.80585,-0.23773193359375,-0.0283203125,0.989990234375,1.996307373046875,0.31402587890625,-2.87109375,1,1.0,1.0,1.0,1.0,50.00
2022-11-23 20:24:32.357,0.6787367,0.48289368,0.38361573,0.9348196,0.77840966,0.52419627,0.42442316,0.8559876,0.4391366,0.31504303,0.06688742,0.43107483,0.17967324,-0.0703627,-0.21867588,0.08205167,-0.30433664,-0.40161818,-0.59246135,-0.02898442,778.46155,809.0842,802.23444,792.5641,809.4872,-0.23773193359375,-0.0283203125,0.989990234375,1.996307373046875,0.31402587890625,-2.87109375,1,1.0,1.0,1.0,1.0,50.00
2022-11-23 20:24:32.358,0.6787367,0.48289368,0.38361573,0.9348196,0.77840966,0.52419627,0.42442316,0.8559876,0.4391366,0.31504303,0.06688742,0.43107483,0.17967324,-0.0703627,-0.21867588,0.08205167,-0.30433664,-0.40161818,-0.59246135,-0.02898442,806.26373,806.26373,802.23444,803.44324,689.011,-0.23773193359375,-0.0283203125,0.989990234375,1.996307373046875,0.31402587890625,-2.87109375,1,1.0,1.0,1.0,1.0,50.00
2022-11-23 20:24:32.358,0.6787367,0.48289368,0.38361573,0.9348196,0.77840966,0.52419627,0.42442316,0.8559876,0.4391366,0.31504303,0.06688742,0.43107483,0.17967324,-0.0703627,-0.21867588,0.08205167,-0.30433664,-0.40161818,-0.59246135,-0.02898442,835.6777,806.26373,799.011,813.91943,891.685,-0.23773193359375,-0.0283203125,0.989990234375,1.996307373046875,0.31402587890625,-2.87109375,1,1.0,1.0,1.0,1.0,50.00
2022-11-23 20:24:32.358,0.6787367,0.48289368,0.38361573,0.9348196,0.77840966,0.52419627,0.42442316,0.8559876,0.4391366,0.31504303,0.06688742,0.43107483,0.17967324,-0.0703627,-0.21867588,0.08205167,-0.30433664,-0.40161818,-0.59246135,-0.02898442,801.4286,807.47253,799.011,792.1612,921.9048,-0.23773193359375,-0.0283203125,0.989990234375,1.996307373046875,0.31402587890625,-2.87109375,1,1.0,1.0,1.0,1.0,50.00
2022-11-23 20:24:32.358,0.6787367,0.48289368,0.38361573,0.9348196,0.77840966,0.52419627,0.42442316,0.8559876,0.4391366,0.31504303,0.06688742,0.43107483,0.17967324,-0.0703627,-0.21867588,0.08205167,-0.30433664,-0.40161818,-0.59246135,-0.02898442,771.2088,804.2491,803.44324,780.07324,626.55676,-0.23773193359375,-0.0283203125,0.989990234375,1.996307373046875,0.31402587890625,-2.87109375,1,1.0,1.0,1.0,1.0,50.00
2022-11-23 20:24:32.411,0.6787367,0.48289368,0.38361573,0.9348196,0.77840966,0.52419627,0.42442316,0.8559876,0.4391366,0.31504303,0.06688742,0.43107483,0.17967324,-0.0703627,-0.21867588,0.08205167,-0.30433664,-0.40161818,-0.59246135,-0.02898442,801.02563,801.8315,807.47253,810.696,583.0403,-0.23248291015625,-0.02032470703125,0.9912109375,4.224395751953125,-0.657958984375,-2.37762451171875,1,1.0,1.0,1.0,1.0,50.00
2022-11-23 20:24:32.411,0.6787367,0.48289368,0.38361573,0.9348196,0.77840966,0.52419627,0.42442316,0.8559876,0.4391366,0.31504303,0.06688742,0.43107483,0.17967324,-0.0703627,-0.21867588,0.08205167,-0.30433664,-0.40161818,-0.59246135,-0.02898442,837.28937,806.6667,807.8755,830.4396,814.7253,-0.23248291015625,-0.02032470703125,0.9912109375,4.224395751953125,-0.657958984375,-2.37762451171875,1,1.0,1.0,1.0,1.0,50.00
2022-11-23 20:24:32.412,0.6787367,0.48289368,0.38361573,0.9348196,0.77840966,0.52419627,0.42442316,0.8559876,0.4391366,0.31504303,0.06688742,0.43107483,0.17967324,-0.0703627,-0.21867588,0.08205167,-0.30433664,-0.40161818,-0.59246135,-0.02898442,817.5458,806.26373,804.65204,806.6667,832.0513,-0.23248291015625,-0.02032470703125,0.9912109375,4.224395751953125,-0.657958984375,-2.37762451171875,1,1.0,1.0,1.0,1.0,50.00
2022-11-23 20:24:32.412,0.6787367,0.48289368,0.38361573,0.9348196,0.77840966,0.52419627,0.42442316,0.8559876,0.4391366,0.31504303,0.06688742,0.43107483,0.17967324,-0.0703627,-0.21867588,0.08205167,-0.30433664,-0.40161818,-0.59246135,-0.02898442,782.8938,803.8461,799.81683,772.4176,664.0293,-0.23248291015625,-0.02032470703125,0.9912109375,4.224395751953125,-0.657958984375,-2.37762451171875,1,1.0,1.0,1.0,1.0,50.00
2022-11-23 20:24:32.412,0.6787367,0.48289368,0.38361573,0.9348196,0.77840966,0.52419627,0.42442316,0.8559876,0.4391366,0.31504303,0.06688742,0.43107483,0.17967324,-0.0703627,-0.21867588,0.08205167,-0.30433664,-0.40161818,-0.59246135,-0.02898442,804.2491,805.05493,801.8315,784.10254,712.381,-0.23248291015625,-0.02032470703125,0.9912109375,4.224395751953125,-0.657958984375,-2.37762451171875,1,1.0,1.0,1.0,1.0,50.00
2022-11-23 20:24:32.413,0.6787367,0.48289368,0.38361573,0.9348196,0.77840966,0.52419627,0.42442316,0.8559876,0.4391366,0.31504303,0.06688742,0.43107483,0.17967324,-0.0703627,-0.21867588,0.08205167,-0.30433664,-0.40161818,-0.59246135,-0.02898442,835.2747,806.6667,802.23444,815.9341,967.4359,-0.23248291015625,-0.02032470703125,0.9912109375,4.224395751953125,-0.657958984375,-2.37762451171875,1,1.0,1.0,1.0,1.0,50.00
2022-11-23 20:24:32.413,0.6787367,0.48289368,0.38361573,0.9348196,0.77840966,0.52419627,0.42442316,0.8559876,0.4391366,0.31504303,0.06688742,0.43107483,0.17967324,-0.0703627,-0.21867588,0.08205167,-0.30433664,-0.40161818,-0.59246135,-0.02898442,820.7692,805.8608,796.5934,806.26373,1003.69965,-0.23248291015625,-0.02032470703125,0.9912109375,4.224395751953125,-0.657958984375,-2.37762451171875,1,1.0,1.0,1.0,1.0,50.00
2022-11-23 20:24:32.414,0.6787367,0.48289368,0.38361573,0.9348196,0.77840966,0.52419627,0.42442316,0.8559876,0.4391366,0.31504303,0.06688742,0.43107483,0.17967324,-0.0703627,-0.21867588,0.08205167,-0.30433664,-0.40161818,-0.59246135,-0.02898442,790.14655,803.8461,794.9817,780.07324,784.5055,-0.23248291015625,-0.02032470703125,0.9912109375,4.224395751953125,-0.657958984375,-2.37762451171875,1,1.0,1.0,1.0,1.0,50.00
2022-11-23 20:24:32.415,0.6787367,0.48289368,0.38361573,0.9348196,0.77840966,0.52419627,0.42442316,0.8559876,0.4391366,0.31504303,0.06688742,0.43107483,0.17967324,-0.0703627,-0.21867588,0.08205167,-0.30433664,-0.40161818,-0.59246135,-0.02898442,780.4762,806.6667,798.20514,784.5055,627.76556,-0.23248291015625,-0.02032470703125,0.9912109375,4.224395751953125,-0.657958984375,-2.37762451171875,1,1.0,1.0,1.0,1.0,50.00
2022-11-23 20:24:32.415,0.6787367,0.48289368,0.38361573,0.9348196,0.77840966,0.52419627,0.42442316,0.8559876,0.4391366,0.31504303,0.06688742,0.43107483,0.17967324,-0.0703627,-0.21867588,0.08205167,-0.30433664,-0.40161818,-0.59246135,-0.02898442,810.293,806.26373,797.3993,809.4872,928.7546,-0.23248291015625,-0.02032470703125,0.9912109375,4.224395751953125,-0.657958984375,-2.37762451171875,1,1.0,1.0,1.0,1.0,50.00
2022-11-23 20:24:32.415,0.6787367,0.48289368,0.38361573,0.9348196,0.77840966,0.52419627,0.42442316,0.8559876,0.4391366,0.31504303,0.06688742,0.43107483,0.17967324,-0.0703627,-0.21867588,0.08205167,-0.30433664,-0.40161818,-0.59246135,-0.02898442,832.4542,807.47253,801.8315,821.978,1098.7913,-0.23248291015625,-0.02032470703125,0.9912109375,4.224395751953125,-0.657958984375,-2.37762451171875,1,1.0,1.0,1.0,1.0,50.00
2022-11-23 20:24:32.416,0.6787367,0.48289368,0.38361573,0.9348196,0.77840966,0.52419627,0.42442316,0.8559876,0.4391366,0.31504303,0.06688742,0.43107483,0.17967324,-0.0703627,-0.21867588,0.08205167,-0.30433664,-0.40161818,-0.59246135,-0.02898442,798.60803,809.4872,807.47253,805.4579,747.8388,-0.23248291015625,-0.02032470703125,0.9912109375,4.224395751953125,-0.657958984375,-2.37762451171875,1,1.0,1.0,1.0,1.0,50.00
2022-11-23 20:24:32.467,0.6787367,0.48289368,0.38361573,0.9348196,0.77840966,0.52419627,0.42442316,0.8559876,0.4391366,0.31504303,0.06688742,0.43107483,0.17967324,-0.0703627,-0.21867588,0.08205167,-0.30433664,-0.40161818,-0.59246135,-0.02898442,770.80585,808.68134,808.68134,790.14655,606.8132,-0.23956298828125,-0.002685546875,0.99664306640625,5.6524658203125,-0.35888671875,0.366363525390625,1,1.0,1.0,1.0,1.0,50.00
2022-11-23 20:24:32.467,0.6787367,0.48289368,0.38361573,0.9348196,0.77840966,0.52419627,0.42442316,0.8559876,0.4391366,0.31504303,0.06688742,0.43107483,0.17967324,-0.0703627,-0.21867588,0.08205167,-0.30433664,-0.40161818,-0.59246135,-0.02898442,813.1135,807.8755,806.26373,813.91943,792.5641,-0.23956298828125,-0.002685546875,0.99664306640625,5.6524658203125,-0.35888671875,0.366363525390625,1,1.0,1.0,1.0,1.0,50.00
2022-11-23 20:24:32.467,0.6787367,0.48289368,0.38361573,0.9348196,0.77840966,0.52419627,0.42442316,0.8559876,0.4391366,0.31504303,0.06688742,0.43107483,0.17967324,-0.0703627,-0.21867588,0.08205167,-0.30433664,-0.40161818,-0.59246135,-0.02898442,844.94507,808.68134,805.4579,838.49817,936.0073,-0.23956298828125,-0.002685546875,0.99664306640625,5.6524658203125,-0.35888671875,0.366363525390625,1,1.0,1.0,1.0,1.0,50.00
2022-11-23 20:24:32.468,0.6787367,0.48289368,0.38361573,0.9348196,0.77840966,0.52419627,0.42442316,0.8559876,0.4391366,0.31504303,0.06688742,0.43107483,0.17967324,-0.0703627,-0.21867588,0.08205167,-0.30433664,-0.40161818,-0.59246135,-0.02898442,806.6667,807.8755,803.0403,815.12823,801.8315,-0.23956298828125,-0.002685546875,0.99664306640625,5.6524658203125,-0.35888671875,0.366363525390625,1,1.0,1.0,1.0,1.0,50.00
2022-11-23 20:24:32.468,0.6787367,0.48289368,0.38361573,0.9348196,0.77840966,0.52419627,0.42442316,0.8559876,0.4391366,0.31504303,0.06688742,0.43107483,0.17967324,-0.0703627,-0.21867588,0.08205167,-0.30433664,-0.40161818,-0.59246135,-0.02898442,779.67035,807.8755,800.6227,790.9524,658.7912,-0.23956298828125,-0.002685546875,0.99664306640625,5.6524658203125,-0.35888671875,0.366363525390625,1,1.0,1.0,1.0,1.0,50.00
2022-11-23 20:24:32.468,0.5901752,0.5630484,0.4372296,0.9139946,0.7683681,0.53089976,0.48220628,0.8629506,0.33402434,0.2941844,0.0891059,0.41386306,0.16942811,-0.07492782,-0.22226314,0.07869734,-0.30570966,-0.38730216,-0.60019463,-0.02358992,806.26373,808.68134,803.0403,808.2784,774.43225,-0.23956298828125,-0.002685546875,0.99664306640625,5.6524658203125,-0.35888671875,0.366363525390625,1,1.0,1.0,1.0,1.0,50.00
2022-11-23 20:24:32.469,0.5901752,0.5630484,0.4372296,0.9139946,0.7683681,0.53089976,0.48220628,0.8629506,0.33402434,0.2941844,0.0891059,0.41386306,0.16942811,-0.07492782,-0.22226314,0.07869734,-0.30570966,-0.38730216,-0.60019463,-0.02358992,836.08057,808.2784,807.47253,823.9927,934.7985,-0.23956298828125,-0.002685546875,0.99664306640625,5.6524658203125,-0.35888671875,0.366363525390625,1,1.0,1.0,1.0,1.0,50.00
2022-11-23 20:24:32.470,0.5901752,0.5630484,0.4372296,0.9139946,0.7683681,0.53089976,0.48220628,0.8629506,0.33402434,0.2941844,0.0891059,0.41386306,0.16942811,-0.07492782,-0.22226314,0.07869734,-0.30570966,-0.38730216,-0.60019463,-0.02358992,823.9927,809.0842,808.2784,814.7253,838.9011,-0.23956298828125,-0.002685546875,0.99664306640625,5.6524658203125,-0.35888671875,0.366363525390625,1,1.0,1.0,1.0,1.0,50.00
2022-11-23 20:24:32.470,0.5901752,0.5630484,0.4372296,0.9139946,0.7683681,0.53089976,0.48220628,0.8629506,0.33402434,0.2941844,0.0891059,0.41386306,0.16942811,-0.07492782,-0.22226314,0.07869734,-0.30570966,-0.38730216,-0.60019463,-0.02358992,787.72894,807.0696,809.4872,803.44324,682.96704,-0.23956298828125,-0.002685546875,0.99664306640625,5.6524658203125,-0.35888671875,0.366363525390625,1,1.0,1.0,1.0,1.0,50.00
2022-11-23 20:24:32.470,0.5901752,0.5630484,0.4372296,0.9139946,0.7683681,0.53089976,0.48220628,0.8629506,0.33402434,0.2941844,0.0891059,0.41386306,0.16942811,-0.07492782,-0.22226314,0.07869734,-0.30570966,-0.38730216,-0.60019463,-0.02358992,785.7143,806.26373,807.8755,815.12823,870.7326,-0.23956298828125,-0.002685546875,0.99664306640625,5.6524658203125,-0.35888671875,0.366363525390625,1,1.0,1.0,1.0,1.0,50.00
2022-11-23 20:24:32.470,0.5901752,0.5630484,0.4372296,0.9139946,0.7683681,0.53089976,0.48220628,0.8629506,0.33402434,0.2941844,0.0891059,0.41386306,0.16942811,-0.07492782,-0.22226314,0.07869734,-0.30570966,-0.38730216,-0.60019463,-0.02358992,817.5458,809.4872,803.44324,832.0513,961.39197,-0.23956298828125,-0.002685546875,0.99664306640625,5.6524658203125,-0.35888671875,0.366363525390625,1,1.0,1.0,1.0,1.0,50.00
2022-11-23 20:24:32.472,0.5901752,0.5630484,0.4372296,0.9139946,0.7683681,0.53089976,0.48220628,0.8629506,0.33402434,0.2941844,0.0891059,0.41386306,0.16942811,-0.07492782,-0.22226314,0.07869734,-0.30570966,-0.38730216,-0.60019463,-0.02358992,826.8132,808.68134,806.26373,831.2454,832.4542,-0.23956298828125,-0.002685546875,0.99664306640625,5.6524658203125,-0.35888671875,0.366363525390625,1,1.0,1.0,1.0,1.0,50.00
2022-11-23 20:24:32.495,0.5901752,0.5630484,0.4372296,0.9139946,0.7683681,0.53089976,0.48220628,0.8629506,0.33402434,0.2941844,0.0891059,0.41386306,0.16942811,-0.07492782,-0.22226314,0.07869734,-0.30570966,-0.38730216,-0.60019463,-0.02358992,790.54944,805.05493,808.2784,807.47253,702.71063,-0.23956298828125,-0.002685546875,0.99664306640625,5.6524658203125,-0.35888671875,0.366363525390625,1,1.0,1.0,1.0,1.0,50.00
2022-11-23 20:24:32.495,0.5901752,0.5630484,0.4372296,0.9139946,0.7683681,0.53089976,0.48220628,0.8629506,0.33402434,0.2941844,0.0891059,0.41386306,0.16942811,-0.07492782,-0.22226314,0.07869734,-0.30570966,-0.38730216,-0.60019463,-0.02358992,773.6264,803.44324,804.2491,788.93774,597.5458,-0.23956298828125,-0.002685546875,0.99664306640625,5.6524658203125,-0.35888671875,0.366363525390625,1,1.0,1.0,1.0,1.0,50.00
2022-11-23 20:24:32.495,0.5901752,0.5630484,0.4372296,0.9139946,0.7683681,0.53089976,0.48220628,0.8629506,0.33402434,0.2941844,0.0891059,0.41386306,0.16942811,-0.07492782,-0.22226314,0.07869734,-0.30570966,-0.38730216,-0.60019463,-0.02358992,814.3223,809.0842,804.65204,814.3223,720.0366,-0.23956298828125,-0.002685546875,0.99664306640625,5.6524658203125,-0.35888671875,0.366363525390625,1,1.0,1.0,1.0,1.0,50.00
2022-11-23 20:24:32.496,0.5901752,0.5630484,0.4372296,0.9139946,0.7683681,0.53089976,0.48220628,0.8629506,0.33402434,0.2941844,0.0891059,0.41386306,0.16942811,-0.07492782,-0.22226314,0.07869734,-0.30570966,-0.38730216,-0.60019463,-0.02358992,834.4689,813.91943,806.26373,828.8278,890.4762,-0.23956298828125,-0.002685546875,0.99664306640625,5.6524658203125,-0.35888671875,0.366363525390625,1,1.0,1.0,1.0,1.0,50.00
2022-11-23 20:24:32.496,0.5901752,0.5630484,0.4372296,0.9139946,0.7683681,0.53089976,0.48220628,0.8629506,0.33402434,0.2941844,0.0891059,0.41386306,0.16942811,-0.07492782,-0.22226314,0.07869734,-0.30570966,-0.38730216,-0.60019463,-0.02358992,803.0403,809.4872,798.60803,804.65204,886.8498,-0.23956298828125,-0.002685546875,0.99664306640625,5.6524658203125,-0.35888671875,0.366363525390625,1,1.0,1.0,1.0,1.0,50.00
2022-11-23 20:24:32.496,0.5901752,0.5630484,0.4372296,0.9139946,0.7683681,0.53089976,0.48220628,0.8629506,0.33402434,0.2941844,0.0891059,0.41386306,0.16942811,-0.07492782,-0.22226314,0.07869734,-0.30570966,-0.38730216,-0.60019463,-0.02358992,776.4469,809.4872,795.38464,791.75824,809.89014,-0.23956298828125,-0.002685546875,0.99664306640625,5.6524658203125,-0.35888671875,0.366363525390625,1,1.0,1.0,1.0,1.0,50.00
2022-11-23 20:24:32.496,0.5901752,0.5630484,0.4372296,0.9139946,0.7683681,0.53089976,0.48220628,0.8629506,0.33402434,0.2941844,0.0891059,0.41386306,0.16942811,-0.07492782,-0.22226314,0.07869734,-0.30570966,-0.38730216,-0.60019463,-0.02358992,803.0403,809.89014,797.8022,807.8755,793.36993,-0.23956298828125,-0.002685546875,0.99664306640625,5.6524658203125,-0.35888671875,0.366363525390625,1,1.0,1.0,1.0,1.0,50.00
2022-11-23 20:24:32.496,0.5901752,0.5630484,0.4372296,0.9139946,0.7683681,0.53089976,0.48220628,0.8629506,0.33402434,0.2941844,0.0891059,0.41386306,0.16942811,-0.07492782,-0.22226314,0.07869734,-0.30570966,-0.38730216,-0.60019463,-0.02358992,833.663,803.8461,798.60803,825.6044,829.6337,-0.23956298828125,-0.002685546875,0.99664306640625,5.6524658203125,-0.35888671875,0.366363525390625,1,1.0,1.0,1.0,1.0,50.00
2022-11-23 20:24:32.497,0.5901752,0.5630484,0.4372296,0.9139946,0.7683681,0.53089976,0.48220628,0.8629506,0.33402434,0.2941844,0.0891059,0.41386306,0.16942811,-0.07492782,-0.22226314,0.07869734,-0.30570966,-0.38730216,-0.60019463,-0.02358992,799.81683,801.8315,804.65204,813.91943,913.44324,-0.23956298828125,-0.002685546875,0.99664306640625,5.6524658203125,-0.35888671875,0.366363525390625,1,1.0,1.0,1.0,1.0,50.00
2022-11-23 20:24:32.497,0.5901752,0.5630484,0.4372296,0.9139946,0.7683681,0.53089976,0.48220628,0.8629506,0.33402434,0.2941844,0.0891059,0.41386306,0.16942811,-0.07492782,-0.22226314,0.07869734,-0.30570966,-0.38730216,-0.60019463,-0.02358992,763.95605,803.44324,807.8755,790.9524,913.0403,-0.23956298828125,-0.002685546875,0.99664306640625,5.6524658203125,-0.35888671875,0.366363525390625,1,1.0,1.0,1.0,1.0,50.00
2022-11-23 20:24:32.497,0.5901752,0.5630484,0.4372296,0.9139946,0.7683681,0.53089976,0.48220628,0.8629506,0.33402434,0.2941844,0.0891059,0.41386306,0.16942811,-0.07492782,-0.22226314,0.07869734,-0.30570966,-0.38730216,-0.60019463,-0.02358992,794.17584,809.4872,809.0842,803.8461,772.4176,-0.23956298828125,-0.002685546875,0.99664306640625,5.6524658203125,-0.35888671875,0.366363525390625,1,1.0,1.0,1.0,1.0,50.00
2022-11-23 20:24:32.497,0.5901752,0.5630484,0.4372296,0.9139946,0.7683681,0.53089976,0.48220628,0.8629506,0.33402434,0.2941844,0.0891059,0.41386306,0.16942811,-0.07492782,-0.22226314,0.07869734,-0.30570966,-0.38730216,-0.60019463,-0.02358992,828.8278,807.8755,805.8608,821.5751,859.0476,-0.23956298828125,-0.002685546875,0.99664306640625,5.6524658203125,-0.35888671875,0.366363525390625,1,1.0,1.0,1.0,1.0,50.00
2022-11-23 20:24:32.556,0.5901752,0.5630484,0.4372296,0.9139946,0.7683681,0.53089976,0.48220628,0.8629506,0.33402434,0.2941844,0.0891059,0.41386306,0.16942811,-0.07492782,-0.22226314,0.07869734,-0.30570966,-0.38730216,-0.60019463,-0.02358992,815.12823,804.2491,805.05493,805.4579,944.87177,-0.25006103515625,0.0032958984375,0.99017333984375,4.20196533203125,0.785064697265625,1.084136962890625,1,1.0,1.0,1.0,1.0,50.00
2022-11-23 20:24:32.557,0.5901752,0.5630484,0.4372296,0.9139946,0.7683681,0.53089976,0.48220628,0.8629506,0.33402434,0.2941844,0.0891059,0.41386306,0.16942811,-0.07492782,-0.22226314,0.07869734,-0.30570966,-0.38730216,-0.60019463,-0.02358992,779.2674,804.2491,805.05493,782.8938,801.4286,-0.25006103515625,0.0032958984375,0.99017333984375,4.20196533203125,0.785064697265625,1.084136962890625,1,1.0,1.0,1.0,1.0,50.00
2022-11-23 20:24:32.557,0.5901752,0.5630484,0.4372296,0.9139946,0.7683681,0.53089976,0.48220628,0.8629506,0.33402434,0.2941844,0.0891059,0.41386306,0.16942811,-0.07492782,-0.22226314,0.07869734,-0.30570966,-0.38730216,-0.60019463,-0.02358992,780.07324,804.2491,798.60803,782.8938,640.65936,-0.25006103515625,0.0032958984375,0.99017333984375,4.20196533203125,0.785064697265625,1.084136962890625,1,1.0,1.0,1.0,1.0,50.00
2022-11-23 20:24:32.558,0.5901752,0.5630484,0.4372296,0.9139946,0.7683681,0.53089976,0.48220628,0.8629506,0.33402434,0.2941844,0.0891059,0.41386306,0.16942811,-0.07492782,-0.22226314,0.07869734,-0.30570966,-0.38730216,-0.60019463,-0.02358992,813.1135,803.8461,799.011,814.3223,727.28937,-0.25006103515625,0.0032958984375,0.99017333984375,4.20196533203125,0.785064697265625,1.084136962890625,1,1.0,1.0,1.0,1.0,50.00
2022-11-23 20:24:32.558,0.5901752,0.5630484,0.4372296,0.9139946,0.7683681,0.53089976,0.48220628,0.8629506,0.33402434,0.2941844,0.0891059,0.41386306,0.16942811,-0.07492782,-0.22226314,0.07869734,-0.30570966,-0.38730216,-0.60019463,-0.02358992,823.9927,803.44324,802.6374,819.15753,839.304,-0.25006103515625,0.0032958984375,0.99017333984375,4.20196533203125,0.785064697265625,1.084136962890625,1,1.0,1.0,1.0,1.0,50.00
2022-11-23 20:24:32.559,0.5901752,0.5630484,0.4372296,0.9139946,0.7683681,0.53089976,0.48220628,0.8629506,0.33402434,0.2941844,0.0891059,0.41386306,0.16942811,-0.07492782,-0.22226314,0.07869734,-0.30570966,-0.38730216,-0.60019463,-0.02358992,803.44324,807.47253,803.8461,801.4286,776.4469,-0.25006103515625,0.0032958984375,0.99017333984375,4.20196533203125,0.785064697265625,1.084136962890625,1,1.0,1.0,1.0,1.0,50.00
2022-11-23 20:24:32.559,0.5901752,0.5630484,0.4372296,0.9139946,0.7683681,0.53089976,0.48220628,0.8629506,0.33402434,0.2941844,0.0891059,0.41386306,0.16942811,-0.07492782,-0.22226314,0.07869734,-0.30570966,-0.38730216,-0.60019463,-0.02358992,782.49084,806.6667,803.8461,797.8022,691.8315,-0.25006103515625,0.0032958984375,0.99017333984375,4.20196533203125,0.785064697265625,1.084136962890625,1,1.0,1.0,1.0,1.0,50.00
2022-11-23 20:24:32.559,0.5180631,0.61388254,0.47163543,0.9085672,0.7813609,0.5335294,0.51873046,0.8604795,0.33132446,0.28512472,0.10027197,0.4100488,0.14367065,-0.08123487,-0.2142238,0.06904715,-0.30910563,-0.37479407,-0.60554165,-0.015513741,807.0696,805.4579,804.2491,816.7399,837.6923,-0.25006103515625,0.0032958984375,0.99017333984375,4.20196533203125,0.785064697265625,1.084136962890625,1,1.0,1.0,1.0,1.0,50.00
2022-11-23 20:24:32.560,0.5180631,0.61388254,0.47163543,0.9085672,0.7813609,0.5335294,0.51873046,0.8604795,0.33132446,0.28512472,0.10027197,0.4100488,0.14367065,-0.08123487,-0.2142238,0.06904715,-0.30910563,-0.37479407,-0.60554165,-0.015513741,831.2454,811.9048,805.8608,834.4689,1193.0769,-0.25006103515625,0.0032958984375,0.99017333984375,4.20196533203125,0.785064697265625,1.084136962890625,1,1.0,1.0,1.0,1.0,50.00
2022-11-23 20:24:32.561,0.5180631,0.61388254,0.47163543,0.9085672,0.7813609,0.5335294,0.51873046,0.8604795,0.33132446,0.28512472,0.10027197,0.4100488,0.14367065,-0.08123487,-0.2142238,0.06904715,-0.30910563,-0.37479407,-0.60554165,-0.015513741,803.0403,815.12823,805.8608,807.0696,1068.9744,-0.25006103515625,0.0032958984375,0.99017333984375,4.20196533203125,0.785064697265625,1.084136962890625,1,1.0,1.0,1.0,1.0,50.00
2022-11-23 20:24:32.561,0.5180631,0.61388254,0.47163543,0.9085672,0.7813609,0.5335294,0.51873046,0.8604795,0.33132446,0.28512472,0.10027197,0.4100488,0.14367065,-0.08123487,-0.2142238,0.06904715,-0.30910563,-0.37479407,-0.60554165,-0.015513741,784.10254,810.293,805.05493,792.1612,614.87177,-0.25006103515625,0.0032958984375,0.99017333984375,4.20196533203125,0.785064697265625,1.084136962890625,1,1.0,1.0,1.0,1.0,50.00
2022-11-23 20:24:32.561,0.5180631,0.61388254,0.47163543,0.9085672,0.7813609,0.5335294,0.51873046,0.8604795,0.33132446,0.28512472,0.10027197,0.4100488,0.14367065,-0.08123487,-0.2142238,0.06904715,-0.30910563,-0.37479407,-0.60554165,-0.015513741,808.68134,808.2784,802.6374,816.337,681.3553,-0.25006103515625,0.0032958984375,0.99017333984375,4.20196533203125,0.785064697265625,1.084136962890625,1,1.0,1.0,1.0,1.0,50.00
2022-11-23 20:24:32.584,0.5180631,0.61388254,0.47163543,0.9085672,0.7813609,0.5335294,0.51873046,0.8604795,0.33132446,0.28512472,0.10027197,0.4100488,0.14367065,-0.08123487,-0.2142238,0.06904715,-0.30910563,-0.37479407,-0.60554165,-0.015513741,839.707,807.8755,803.0403,830.4396,870.32965,-0.25909423828125,-0.00390625,0.9791259765625,2.6019287109375,2.968292236328125,-1.2261962890625,1,1.0,1.0,1.0,1.0,50.00
2022-11-23 20:24:32.584,0.5180631,0.61388254,0.47163543,0.9085672,0.7813609,0.5335294,0.51873046,0.8604795,0.33132446,0.28512472,0.10027197,0.4100488,0.14367065,-0.08123487,-0.2142238,0.06904715,-0.30910563,-0.37479407,-0.60554165,-0.015513741,823.9927,809.4872,806.26373,812.3077,775.2381,-0.25909423828125,-0.00390625,0.9791259765625,2.6019287109375,2.968292236328125,-1.2261962890625,1,1.0,1.0,1.0,1.0,50.00
2022-11-23 20:24:32.584,0.5180631,0.61388254,0.47163543,0.9085672,0.7813609,0.5335294,0.51873046,0.8604795,0.33132446,0.28512472,0.10027197,0.4100488,0.14367065,-0.08123487,-0.2142238,0.06904715,-0.30910563,-0.37479407,-0.60554165,-0.015513741,791.3553,814.3223,807.0696,795.38464,683.36993,-0.25909423828125,-0.00390625,0.9791259765625,2.6019287109375,2.968292236328125,-1.2261962890625,1,1.0,1.0,1.0,1.0,50.00
2022-11-23 20:24:32.584,0.5180631,0.61388254,0.47163543,0.9085672,0.7813609,0.5335294,0.51873046,0.8604795,0.33132446,0.28512472,0.10027197,0.4100488,0.14367065,-0.08123487,-0.2142238,0.06904715,-0.30910563,-0.37479407,-0.60554165,-0.015513741,802.6374,812.3077,805.8608,807.8755,795.78754,-0.25909423828125,-0.00390625,0.9791259765625,2.6019287109375,2.968292236328125,-1.2261962890625,1,1.0,1.0,1.0,1.0,50.00
2022-11-23 20:24:32.585,0.5180631,0.61388254,0.47163543,0.9085672,0.7813609,0.5335294,0.51873046,0.8604795,0.33132446,0.28512472,0.10027197,0.4100488,0.14367065,-0.08123487,-0.2142238,0.06904715,-0.30910563,-0.37479407,-0.60554165,-0.015513741,833.2601,808.2784,802.23444,823.5897,875.9707,-0.25909423828125,-0.00390625,0.9791259765625,2.6019287109375,2.968292236328125,-1.2261962890625,1,1.0,1.0,1.0,1.0,50.00
2022-11-23 20:24:32.585,0.5180631,0.61388254,0.47163543,0.9085672,0.7813609,0.5335294,0.51873046,0.8604795,0.33132446,0.28512472,0.10027197,0.4100488,0.14367065,-0.08123487,-0.2142238,0.06904715,-0.30910563,-0.37479407,-0.60554165,-0.015513741,826.8132,808.68134,800.6227,817.9487,820.3663,-0.25909423828125,-0.00390625,0.9791259765625,2.6019287109375,2.968292236328125,-1.2261962890625,1,1.0,1.0,1.0,1.0,50.00
2022-11-23 20:24:32.585,0.5180631,0.61388254,0.47163543,0.9085672,0.7813609,0.5335294,0.51873046,0.8604795,0.33132446,0.28512472,0.10027197,0.4100488,0.14367065,-0.08123487,-0.2142238,0.06904715,-0.30910563,-0.37479407,-0.60554165,-0.015513741,795.38464,810.293,802.23444,794.9817,667.25275,-0.25909423828125,-0.00390625,0.9791259765625,2.6019287109375,2.968292236328125,-1.2261962890625,1,1.0,1.0,1.0,1.0,50.00
2022-11-23 20:24:32.585,0.5180631,0.61388254,0.47163543,0.9085672,0.7813609,0.5335294,0.51873046,0.8604795,0.33132446,0.28512472,0.10027197,0.4100488,0.14367065,-0.08123487,-0.2142238,0.06904715,-0.30910563,-0.37479407,-0.60554165,-0.015513741,788.1319,809.89014,801.8315,800.2198,734.94507,-0.25909423828125,-0.00390625,0.9791259765625,2.6019287109375,2.968292236328125,-1.2261962890625,1,1.0,1.0,1.0,1.0,50.00
2022-11-23 20:24:32.586,0.5180631,0.61388254,0.47163543,0.9085672,0.7813609,0.5335294,0.51873046,0.8604795,0.33132446,0.28512472,0.10027197,0.4100488,0.14367065,-0.08123487,-0.2142238,0.06904715,-0.30910563,-0.37479407,-0.60554165,-0.015513741,823.9927,810.696,803.8461,831.2454,940.0366,-0.25909423828125,-0.00390625,0.9791259765625,2.6019287109375,2.968292236328125,-1.2261962890625,1,1.0,1.0,1.0,1.0,50.00
2022-11-23 20:24:32.586,0.5180631,0.61388254,0.47163543,0.9085672,0.7813609,0.5335294,0.51873046,0.8604795,0.33132446,0.28512472,0.10027197,0.4100488,0.14367065,-0.08123487,-0.2142238,0.06904715,-0.30910563,-0.37479407,-0.60554165,-0.015513741,834.0659,809.0842,805.05493,830.4396,862.27106,-0.25909423828125,-0.00390625,0.9791259765625,2.6019287109375,2.968292236328125,-1.2261962890625,1,1.0,1.0,1.0,1.0,50.00
2022-11-23 20:24:32.586,0.5180631,0.61388254,0.47163543,0.9085672,0.7813609,0.5335294,0.51873046,0.8604795,0.33132446,0.28512472,0.10027197,0.4100488,0.14367065,-0.08123487,-0.2142238,0.06904715,-0.30910563,-0.37479407,-0.60554165,-0.015513741,792.5641,812.3077,803.8461,798.60803,679.7436,-0.25909423828125,-0.00390625,0.9791259765625,2.6019287109375,2.968292236328125,-1.2261962890625,1,1.0,1.0,1.0,1.0,50.00
2022-11-23 20:24:32.586,0.5180631,0.61388254,0.47163543,0.9085672,0.7813609,0.5335294,0.51873046,0.8604795,0.33132446,0.28512472,0.10027197,0.4100488,0.14367065,-0.08123487,-0.2142238,0.06904715,-0.30910563,-0.37479407,-0.60554165,-0.015513741,771.2088,812.3077,804.65204,786.1172,618.9011,-0.25909423828125,-0.00390625,0.9791259765625,2.6019287109375,2.968292236328125,-1.2261962890625,1,1.0,1.0,1.0,1.0,50.00
2022-11-23 20:24:32.635,0.5180631,0.61388254,0.47163543,0.9085672,0.7813609,0.5335294,0.51873046,0.8604795,0.33132446,0.28512472,0.10027197,0.4100488,0.14367065,-0.08123487,-0.2142238,0.06904715,-0.30910563,-0.37479407,-0.60554165,-0.015513741,809.0842,809.89014,802.6374,820.7692,774.83514,-0.26092529296875,-0.002685546875,0.9832763671875,2.654266357421875,1.24114990234375,0.9271240234375,1,1.0,1.0,1.0,1.0,50.00
2022-11-23 20:24:32.635,0.5180631,0.61388254,0.47163543,0.9085672,0.7813609,0.5335294,0.51873046,0.8604795,0.33132446,0.28512472,0.10027197,0.4100488,0.14367065,-0.08123487,-0.2142238,0.06904715,-0.30910563,-0.37479407,-0.60554165,-0.015513741,844.94507,813.1135,802.6374,832.8571,832.8571,-0.26092529296875,-0.002685546875,0.9832763671875,2.654266357421875,1.24114990234375,0.9271240234375,1,1.0,1.0,1.0,1.0,50.00
2022-11-23 20:24:32.635,0.5180631,0.61388254,0.47163543,0.9085672,0.7813609,0.5335294,0.51873046,0.8604795,0.33132446,0.28512472,0.10027197,0.4100488,0.14367065,-0.08123487,-0.2142238,0.06904715,-0.30910563,-0.37479407,-0.60554165,-0.015513741,819.5604,811.50183,799.41394,797.8022,735.7509,-0.26092529296875,-0.002685546875,0.9832763671875,2.654266357421875,1.24114990234375,0.9271240234375,1,1.0,1.0,1.0,1.0,50.00
2022-11-23 20:24:32.636,0.5180631,0.61388254,0.47163543,0.9085672,0.7813609,0.5335294,0.51873046,0.8604795,0.33132446,0.28512472,0.10027197,0.4100488,0.14367065,-0.08123487,-0.2142238,0.06904715,-0.30910563,-0.37479407,-0.60554165,-0.015513741,783.69965,809.89014,799.41394,776.4469,645.89746,-0.26092529296875,-0.002685546875,0.9832763671875,2.654266357421875,1.24114990234375,0.9271240234375,1,1.0,1.0,1.0,1.0,50.00
2022-11-23 20:24:32.636,0.5180631,0.61388254,0.47163543,0.9085672,0.7813609,0.5335294,0.51873046,0.8604795,0.33132446,0.28512472,0.10027197,0.4100488,0.14367065,-0.08123487,-0.2142238,0.06904715,-0.30910563,-0.37479407,-0.60554165,-0.015513741,809.89014,811.50183,802.23444,800.6227,699.89014,-0.26092529296875,-0.002685546875,0.9832763671875,2.654266357421875,1.24114990234375,0.9271240234375,1,1.0,1.0,1.0,1.0,50.00
2022-11-23 20:24:32.636,0.5180631,0.61388254,0.47163543,0.9085672,0.7813609,0.5335294,0.51873046,0.8604795,0.33132446,0.28512472,0.10027197,0.4100488,0.14367065,-0.08123487,-0.2142238,0.06904715,-0.30910563,-0.37479407,-0.60554165,-0.015513741,842.1245,811.0989,798.60803,826.8132,881.6117,-0.26092529296875,-0.002685546875,0.9832763671875,2.654266357421875,1.24114990234375,0.9271240234375,1,1.0,1.0,1.0,1.0,50.00
2022-11-23 20:24:32.636,0.5180631,0.61388254,0.47163543,0.9085672,0.7813609,0.5335294,0.51873046,0.8604795,0.33132446,0.28512472,0.10027197,0.4100488,0.14367065,-0.08123487,-0.2142238,0.06904715,-0.30910563,-0.37479407,-0.60554165,-0.015513741,819.15753,813.5165,794.9817,807.0696,876.77655,-0.26092529296875,-0.002685546875,0.9832763671875,2.654266357421875,1.24114990234375,0.9271240234375,1,1.0,1.0,1.0,1.0,50.00
2022-11-23 20:24:32.637,0.5180631,0.61388254,0.47163543,0.9085672,0.7813609,0.5335294,0.51873046,0.8604795,0.33132446,0.28512472,0.10027197,0.4100488,0.14367065,-0.08123487,-0.2142238,0.06904715,-0.30910563,-0.37479407,-0.60554165,-0.015513741,783.2967,814.3223,796.99634,788.1319,821.5751,-0.26092529296875,-0.002685546875,0.9832763671875,2.654266357421875,1.24114990234375,0.9271240234375,1,1.0,1.0,1.0,1.0,50.00
2022-11-23 20:24:32.637,0.5180631,0.61388254,0.47163543,0.9085672,0.7813609,0.5335294,0.51873046,0.8604795,0.33132446,0.28512472,0.10027197,0.4100488,0.14367065,-0.08123487,-0.2142238,0.06904715,-0.30910563,-0.37479407,-0.60554165,-0.015513741,787.72894,809.89014,805.4579,803.8461,791.3553,-0.26092529296875,-0.002685546875,0.9832763671875,2.654266357421875,1.24114990234375,0.9271240234375,1,1.0,1.0,1.0,1.0,50.00
2022-11-23 20:24:32.637,0.4760186,0.6358907,0.48478076,0.91593504,0.78494173,0.5186088,0.52699023,0.829749,0.33132446,0.27575627,0.105345756,0.40850347,0.09678927,-0.08888015,-0.18992388,0.053017024,-0.31994846,-0.36347985,-0.60938436,-0.008422488,828.022,808.68134,805.8608,823.5897,820.3663,-0.26092529296875,-0.002685546875,0.9832763671875,2.654266357421875,1.24114990234375,0.9271240234375,1,1.0,1.0,1.0,1.0,50.00
2022-11-23 20:24:32.638,0.4760186,0.6358907,0.48478076,0.91593504,0.78494173,0.5186088,0.52699023,0.829749,0.33132446,0.27575627,0.105345756,0.40850347,0.09678927,-0.08888015,-0.18992388,0.053017024,-0.31994846,-0.36347985,-0.60938436,-0.008422488,830.0366,808.68134,803.44324,818.7546,892.49084,-0.26092529296875,-0.002685546875,0.9832763671875,2.654266357421875,1.24114990234375,0.9271240234375,1,1.0,1.0,1.0,1.0,50.00
2022-11-23 20:24:32.638,0.4760186,0.6358907,0.48478076,0.91593504,0.78494173,0.5186088,0.52699023,0.829749,0.33132446,0.27575627,0.105345756,0.40850347,0.09678927,-0.08888015,-0.18992388,0.053017024,-0.31994846,-0.36347985,-0.60938436,-0.008422488,786.9231,805.4579,802.6374,791.3553,703.1135,-0.26092529296875,-0.002685546875,0.9832763671875,2.654266357421875,1.24114990234375,0.9271240234375,1,1.0,1.0,1.0,1.0,50.00
2022-11-23 20:24:32.684,0.4760186,0.6358907,0.48478076,0.91593504,0.78494173,0.5186088,0.52699023,0.829749,0.33132446,0.27575627,0.105345756,0.40850347,0.09678927,-0.08888015,-0.18992388,0.053017024,-0.31994846,-0.36347985,-0.60938436,-0.008422488,773.6264,801.8315,800.6227,782.49084,600.7692,-0.2625732421875,-0.00518798828125,0.98687744140625,2.459869384765625,-1.98883056640625,1.5252685546875,1,1.0,1.0,1.0,1.0,50.00
2022-11-23 20:24:32.684,0.4760186,0.6358907,0.48478076,0.91593504,0.78494173,0.5186088,0.52699023,0.829749,0.33132446,0.27575627,0.105345756,0.40850347,0.09678927,-0.08888015,-0.18992388,0.053017024,-0.31994846,-0.36347985,-0.60938436,-0.008422488,807.0696,800.6227,804.2491,814.3223,711.5751,-0.2625732421875,-0.00518798828125,0.98687744140625,2.459869384765625,-1.98883056640625,1.5252685546875,1,1.0,1.0,1.0,1.0,50.00
2022-11-23 20:24:32.684,0.4760186,0.6358907,0.48478076,0.91593504,0.78494173,0.5186088,0.52699023,0.829749,0.33132446,0.27575627,0.105345756,0.40850347,0.09678927,-0.08888015,-0.18992388,0.053017024,-0.31994846,-0.36347985,-0.60938436,-0.008422488,830.0366,802.6374,805.8608,826.8132,888.86444,-0.2625732421875,-0.00518798828125,0.98687744140625,2.459869384765625,-1.98883056640625,1.5252685546875,1,1.0,1.0,1.0,1.0,50.00
2022-11-23 20:24:32.685,0.4760186,0.6358907,0.48478076,0.91593504,0.78494173,0.5186088,0.52699023,0.829749,0.33132446,0.27575627,0.105345756,0.40850347,0.09678927,-0.08888015,-0.18992388,0.053017024,-0.31994846,-0.36347985,-0.60938436,-0.008422488,792.96704,801.8315,807.0696,803.8461,850.989,-0.2625732421875,-0.00518798828125,0.98687744140625,2.459869384765625,-1.98883056640625,1.5252685546875,1,1.0,1.0,1.0,1.0,50.00
2022-11-23 20:24:32.685,0.4760186,0.6358907,0.48478076,0.91593504,0.78494173,0.5186088,0.52699023,0.829749,0.33132446,0.27575627,0.105345756,0.40850347,0.09678927,-0.08888015,-0.18992388,0.053017024,-0.31994846,-0.36347985,-0.60938436,-0.008422488,766.3736,801.4286,805.05493,783.2967,639.0476,-0.2625732421875,-0.00518798828125,0.98687744140625,2.459869384765625,-1.98883056640625,1.5252685546875,1,1.0,1.0,1.0,1.0,50.00
2022-11-23 20:24:32.685,0.4760186,0.6358907,0.48478076,0.91593504,0.78494173,0.5186088,0.52699023,0.829749,0.33132446,0.27575627,0.105345756,0.40850347,0.09678927,-0.08888015,-0.18992388,0.053017024,-0.31994846,-0.36347985,-0.60938436,-0.008422488,807.8755,803.8461,799.011,799.81683,762.74725,-0.2625732421875,-0.00518798828125,0.98687744140625,2.459869384765625,-1.98883056640625,1.5252685546875,1,1.0,1.0,1.0,1.0,50.00
2022-11-23 20:24:32.685,0.4760186,0.6358907,0.48478076,0.91593504,0.78494173,0.5186088,0.52699023,0.829749,0.33132446,0.27575627,0.105345756,0.40850347,0.09678927,-0.08888015,-0.18992388,0.053017024,-0.31994846,-0.36347985,-0.60938436,-0.008422488,840.5128,804.65204,801.8315,828.4249,1149.5604,-0.2625732421875,-0.00518798828125,0.98687744140625,2.459869384765625,-1.98883056640625,1.5252685546875,1,1.0,1.0,1.0,1.0,50.00
2022-11-23 20:24:32.685,0.4760186,0.6358907,0.48478076,0.91593504,0.78494173,0.5186088,0.52699023,0.829749,0.33132446,0.27575627,0.105345756,0.40850347,0.09678927,-0.08888015,-0.18992388,0.053017024,-0.31994846,-0.36347985,-0.60938436,-0.008422488,812.71063,806.6667,806.26373,813.91943,1117.7289,-0.2625732421875,-0.00518798828125,0.98687744140625,2.459869384765625,-1.98883056640625,1.5252685546875,1,1.0,1.0,1.0,1.0,50.00
2022-11-23 20:24:32.686,0.4760186,0.6358907,0.48478076,0.91593504,0.78494173,0.5186088,0.52699023,0.829749,0.33132446,0.27575627,0.105345756,0.40850347,0.09678927,-0.08888015,-0.18992388,0.053017024,-0.31994846,-0.36347985,-0.60938436,-0.008422488,782.8938,803.44324,803.8461,784.90845,646.30035,-0.2625732421875,-0.00518798828125,0.98687744140625,2.459869384765625,-1.98883056640625,1.5252685546875,1,1.0,1.0,1.0,1.0,50.00
2022-11-23 20:24:32.686,0.4760186,0.6358907,0.48478076,0.91593504,0.78494173,0.5186088,0.52699023,0.829749,0.33132446,0.27575627,0.105345756,0.40850347,0.09678927,-0.08888015,-0.18992388,0.053017024,-0.31994846,-0.36347985,-0.60938436,-0.008422488,794.9817,799.41394,798.20514,792.1612,598.3516,-0.2625732421875,-0.00518798828125,0.98687744140625,2.459869384765625,-1.98883056640625,1.5252685546875,1,1.0,1.0,1.0,1.0,50.00
2022-11-23 20:24:32.686,0.4760186,0.6358907,0.48478076,0.91593504,0.78494173,0.5186088,0.52699023,0.829749,0.33132446,0.27575627,0.105345756,0.40850347,0.09678927,-0.08888015,-0.18992388,0.053017024,-0.31994846,-0.36347985,-0.60938436,-0.008422488,832.4542,805.4579,796.5934,823.1868,850.18317,-0.2625732421875,-0.00518798828125,0.98687744140625,2.459869384765625,-1.98883056640625,1.5252685546875,1,1.0,1.0,1.0,1.0,50.00
2022-11-23 20:24:32.686,0.4760186,0.6358907,0.48478076,0.91593504,0.78494173,0.5186088,0.52699023,0.829749,0.33132446,0.27575627,0.105345756,0.40850347,0.09678927,-0.08888015,-0.18992388,0.053017024,-0.31994846,-0.36347985,-0.60938436,-0.008422488,822.7839,803.44324,796.1905,805.8608,860.2564,-0.2625732421875,-0.00518798828125,0.98687744140625,2.459869384765625,-1.98883056640625,1.5252685546875,1,1.0,1.0,1.0,1.0,50.00
2022-11-23 20:24:32.736,0.4760186,0.6358907,0.48478076,0.91593504,0.78494173,0.5186088,0.52699023,0.829749,0.33132446,0.27575627,0.105345756,0.40850347,0.09678927,-0.08888015,-0.18992388,0.053017024,-0.31994846,-0.36347985,-0.60938436,-0.008422488,772.4176,803.44324,794.57874,776.4469,632.1978,-0.2625732421875,-0.00518798828125,0.98687744140625,2.459869384765625,-1.98883056640625,1.5252685546875,1,1.0,1.0,1.0,1.0,50.00
2022-11-23 20:24:32.737,0.4760186,0.6358907,0.48478076,0.91593504,0.78494173,0.5186088,0.52699023,0.829749,0.33132446,0.27575627,0.105345756,0.40850347,0.09678927,-0.08888015,-0.18992388,0.053017024,-0.31994846,-0.36347985,-0.60938436,-0.008422488,778.0586,805.8608,798.60803,794.17584,605.2015,-0.2625732421875,-0.00518798828125,0.98687744140625,2.459869384765625,-1.98883056640625,1.5252685546875,1,1.0,1.0,1.0,1.0,50.00
2022-11-23 20:24:32.737,0.4760186,0.6358907,0.48478076,0.91593504,0.78494173,0.5186088,0.52699023,0.829749,0.33132446,0.27575627,0.105345756,0.40850347,0.09678927,-0.08888015,-0.18992388,0.053017024,-0.31994846,-0.36347985,-0.60938436,-0.008422488,823.1868,807.0696,799.011,820.7692,801.02563,-0.2625732421875,-0.00518798828125,0.98687744140625,2.459869384765625,-1.98883056640625,1.5252685546875,1,1.0,1.0,1.0,1.0,50.00
2022-11-23 20:24:32.737,0.4760186,0.6358907,0.48478076,0.91593504,0.78494173,0.5186088,0.52699023,0.829749,0.33132446,0.27575627,0.105345756,0.40850347,0.09678927,-0.08888015,-0.18992388,0.053017024,-0.31994846,-0.36347985,-0.60938436,-0.008422488,827.2161,811.0989,790.54944,819.15753,919.4872,-0.2625732421875,-0.00518798828125,0.98687744140625,2.459869384765625,-1.98883056640625,1.5252685546875,1,1.0,1.0,1.0,1.0,50.00
2022-11-23 20:24:32.737,0.4760186,0.6358907,0.48478076,0.91593504,0.78494173,0.5186088,0.52699023,0.829749,0.33132446,0.27575627,0.105345756,0.40850347,0.09678927,-0.08888015,-0.18992388,0.053017024,-0.31994846,-0.36347985,-0.60938436,-0.008422488,793.7729,810.696,789.7436,789.34064,765.56775,-0.2625732421875,-0.00518798828125,0.98687744140625,2.459869384765625,-1.98883056640625,1.5252685546875,1,1.0,1.0,1.0,1.0,50.00
2022-11-23 20:24:32.738,0.4760186,0.6358907,0.48478076,0.91593504,0.78494173,0.5186088,0.52699023,0.829749,0.33132446,0.27575627,0.105345756,0.40850347,0.09678927,-0.08888015,-0.18992388,0.053017024,-0.31994846,-0.36347985,-0.60938436,-0.008422488,784.10254,810.293,794.17584,782.8938,669.2674,-0.2625732421875,-0.00518798828125,0.98687744140625,2.459869384765625,-1.98883056640625,1.5252685546875,1,1.0,1.0,1.0,1.0,50.00
2022-11-23 20:24:32.738,0.4760186,0.6358907,0.48478076,0.91593504,0.78494173,0.5186088,0.52699023,0.829749,0.33132446,0.27575627,0.105345756,0.40850347,0.09678927,-0.08888015,-0.18992388,0.053017024,-0.31994846,-0.36347985,-0.60938436,-0.008422488,822.7839,810.696,799.41394,814.7253,1169.3041,-0.2625732421875,-0.00518798828125,0.98687744140625,2.459869384765625,-1.98883056640625,1.5252685546875,1,1.0,1.0,1.0,1.0,50.00
2022-11-23 20:24:32.738,0.4760186,0.6358907,0.48478076,0.91593504,0.78494173,0.5186088,0.52699023,0.829749,0.33132446,0.27575627,0.105345756,0.40850347,0.09678927,-0.08888015,-0.18992388,0.053017024,-0.31994846,-0.36347985,-0.60938436,-0.008422488,838.9011,810.293,803.0403,827.2161,1272.8572,-0.2625732421875,-0.00518798828125,0.98687744140625,2.459869384765625,-1.98883056640625,1.5252685546875,1,1.0,1.0,1.0,1.0,50.00
2022-11-23 20:24:32.738,0.4760186,0.6358907,0.48478076,0.91593504,0.78494173,0.5186088,0.52699023,0.829749,0.33132446,0.27575627,0.105345756,0.40850347,0.09678927,-0.08888015,-0.18992388,0.053017024,-0.31994846,-0.36347985,-0.60938436,-0.008422488,804.2491,808.68134,803.44324,801.02563,782.8938,-0.2625732421875,-0.00518798828125,0.98687744140625,2.459869384765625,-1.98883056640625,1.5252685546875,1,1.0,1.0,1.0,1.0,50.00
2022-11-23 20:24:32.739,0.4760186,0.6358907,0.48478076,0.91593504,0.78494173,0.5186088,0.52699023,0.829749,0.33132446,0.27575627,0.105345756,0.40850347,0.09678927,-0.08888015,-0.18992388,0.053017024,-0.31994846,-0.36347985,-0.60938436,-0.008422488,776.4469,805.8608,801.4286,778.86444,657.5824,-0.2625732421875,-0.00518798828125,0.98687744140625,2.459869384765625,-1.98883056640625,1.5252685546875,1,1.0,1.0,1.0,1.0,50.00
2022-11-23 20:24:32.740,0.4760186,0.6358907,0.48478076,0.91593504,0.78494173,0.5186088,0.52699023,0.829749,0.33132446,0.27575627,0.105345756,0.40850347,0.09678927,-0.08888015,-0.18992388,0.053017024,-0.31994846,-0.36347985,-0.60938436,-0.008422488,800.2198,799.81683,803.8461,802.23444,772.4176,-0.2625732421875,-0.00518798828125,0.98687744140625,2.459869384765625,-1.98883056640625,1.5252685546875,1,1.0,1.0,1.0,1.0,50.00
