TimeStamp,Delta_TP9,Delta_AF7,Delta_AF8,Delta_TP10,Theta_TP9,Theta_AF7,Theta_AF8,Theta_TP10,Alpha_TP9,Alpha_AF7,Alpha_AF8,Alpha_TP10,Beta_TP9,Beta_AF7,Beta_AF8,Beta_TP10,Gamma_TP9,Gamma_AF7,Gamma_AF8,Gamma_TP10,RAW_TP9,RAW_AF7,RAW_AF8,RAW_TP10,AUX_RIGHT,Accelerometer_X,Accelerometer_Y,Accelerometer_Z,Gyro_X,Gyro_Y,Gyro_Z,HeadBandOn,HSI_TP9,HSI_AF7,HSI_AF8,HSI_TP10,Battery,Elements
2022-11-23 20:26:00.656,0.6014626,-0.3546778,-0.15964843,0.70388025,0.53193265,-0.19747773,-0.22702324,0.6613647,0.40485328,-0.040304013,-0.0028126347,0.9476206,0.20289317,-0.16172998,-0.008841098,0.27998763,-0.101567365,-0.64080626,-0.5896695,-0.0805087,764.7619,801.4286,798.60803,778.46155,681.3553,-0.2354736328125,-0.007080078125,0.9892578125,3.33465576171875,-0.478515625,0.52337646484375,1,1.0,1.0,1.0,1.0,50.00
2022-11-23 20:26:00.657,0.60352486,-0.36572003,-0.19790567,0.70771563,0.5232639,-0.2077421,-0.2676476,0.6615277,0.42472708,-0.07088548,-0.040014558,0.91736233,0.23993622,-0.15076423,-0.015000853,0.271248,-0.105968215,-0.6184076,-0.5786968,-0.07649439,768.7912,799.41394,799.81683,792.96704,641.8681,-0.2354736328125,-0.007080078125,0.9892578125,3.33465576171875,-0.478515625,0.52337646484375,1,1.0,1.0,1.0,1.0,50.00
2022-11-23 20:26:00.658,0.60352486,-0.36572003,-0.19790567,0.70771563,0.5232639,-0.2077421,-0.2676476,0.6615277,0.42472708,-0.07088548,-0.040014558,0.91736233,0.23993622,-0.15076423,-0.015000853,0.271248,-0.105968215,-0.6184076,-0.5786968,-0.07649439,809.4872,800.2198,799.011,816.337,812.71063,-0.2354736328125,-0.007080078125,0.9892578125,3.33465576171875,-0.478515625,0.52337646484375,1,1.0,1.0,1.0,1.0,50.00
2022-11-23 20:26:00.659,0.60352486,-0.36572003,-0.19790567,0.70771563,0.5232639,-0.2077421,-0.2676476,0.6615277,0.42472708,-0.07088548,-0.040014558,0.91736233,0.23993622,-0.15076423,-0.015000853,0.271248,-0.105968215,-0.6184076,-0.5786968,-0.07649439,821.978,801.8315,801.4286,813.1135,921.9048,-0.2354736328125,-0.007080078125,0.9892578125,3.33465576171875,-0.478515625,0.52337646484375,1,1.0,1.0,1.0,1.0,50.00
2022-11-23 20:26:00.659,0.60352486,-0.36572003,-0.19790567,0.70771563,0.5232639,-0.2077421,-0.2676476,0.6615277,0.42472708,-0.07088548,-0.040014558,0.91736233,0.23993622,-0.15076423,-0.015000853,0.271248,-0.105968215,-0.6184076,-0.5786968,-0.07649439,781.28204,801.4286,800.6227,782.49084,765.56775,-0.2354736328125,-0.007080078125,0.9892578125,3.33465576171875,-0.478515625,0.52337646484375,1,1.0,1.0,1.0,1.0,50.00
2022-11-23 20:26:00.659,0.60352486,-0.36572003,-0.19790567,0.70771563,0.5232639,-0.2077421,-0.2676476,0.6615277,0.42472708,-0.07088548,-0.040014558,0.91736233,0.23993622,-0.15076423,-0.015000853,0.271248,-0.105968215,-0.6184076,-0.5786968,-0.07649439,770.80585,805.05493,800.6227,780.87915,684.9817,-0.2354736328125,-0.007080078125,0.9892578125,3.33465576171875,-0.478515625,0.52337646484375,1,1.0,1.0,1.0,1.0,50.00
2022-11-23 20:26:00.660,0.60352486,-0.36572003,-0.19790567,0.70771563,0.5232639,-0.2077421,-0.2676476,0.6615277,0.42472708,-0.07088548,-0.040014558,0.91736233,0.23993622,-0.15076423,-0.015000853,0.271248,-0.105968215,-0.6184076,-0.5786968,-0.07649439,815.12823,805.05493,800.2198,806.6667,865.4945,-0.2354736328125,-0.007080078125,0.9892578125,3.33465576171875,-0.478515625,0.52337646484375,1,1.0,1.0,1.0,1.0,50.00
2022-11-23 20:26:00.660,0.60352486,-0.36572003,-0.19790567,0.70771563,0.5232639,-0.2077421,-0.2676476,0.6615277,0.42472708,-0.07088548,-0.040014558,0.91736233,0.23993622,-0.15076423,-0.015000853,0.271248,-0.105968215,-0.6184076,-0.5786968,-0.07649439,840.10986,808.2784,800.6227,821.978,1060.5128,-0.2354736328125,-0.007080078125,0.9892578125,3.33465576171875,-0.478515625,0.52337646484375,1,1.0,1.0,1.0,1.0,50.00
2022-11-23 20:26:00.660,0.60352486,-0.36572003,-0.19790567,0.70771563,0.5232639,-0.2077421,-0.2676476,0.6615277,0.42472708,-0.07088548,-0.040014558,0.91736233,0.23993622,-0.15076423,-0.015000853,0.271248,-0.105968215,-0.6184076,-0.5786968,-0.07649439,807.0696,808.2784,799.011,800.6227,827.2161,-0.2354736328125,-0.007080078125,0.9892578125,3.33465576171875,-0.478515625,0.52337646484375,1,1.0,1.0,1.0,1.0,50.00
2022-11-23 20:26:00.660,0.60352486,-0.36572003,-0.19790567,0.70771563,0.5232639,-0.2077421,-0.2676476,0.6615277,0.42472708,-0.07088548,-0.040014558,0.91736233,0.23993622,-0.15076423,-0.015000853,0.271248,-0.105968215,-0.6184076,-0.5786968,-0.07649439,781.685,805.8608,793.36993,779.2674,550.0,-0.2354736328125,-0.007080078125,0.9892578125,3.33465576171875,-0.478515625,0.52337646484375,1,1.0,1.0,1.0,1.0,50.00
2022-11-23 20:26:00.661,0.60352486,-0.36572003,-0.19790567,0.70771563,0.5232639,-0.2077421,-0.2676476,0.6615277,0.42472708,-0.07088548,-0.040014558,0.91736233,0.23993622,-0.15076423,-0.015000853,0.271248,-0.105968215,-0.6184076,-0.5786968,-0.07649439,805.8608,806.6667,798.20514,798.20514,671.685,-0.2354736328125,-0.007080078125,0.9892578125,3.33465576171875,-0.478515625,0.52337646484375,1,1.0,1.0,1.0,1.0,50.00
2022-11-23 20:26:00.661,0.60352486,-0.36572003,-0.19790567,0.70771563,0.5232639,-0.2077421,-0.2676476,0.6615277,0.42472708,-0.07088548,-0.040014558,0.91736233,0.23993622,-0.15076423,-0.015000853,0.271248,-0.105968215,-0.6184076,-0.5786968,-0.07649439,837.6923,807.0696,803.8461,823.9927,850.58606,-0.2354736328125,-0.007080078125,0.9892578125,3.33465576171875,-0.478515625,0.52337646484375,1,1.0,1.0,1.0,1.0,50.00
2022-11-23 20:26:00.685,0.60352486,-0.36572003,-0.19790567,0.70771563,0.5232639,-0.2077421,-0.2676476,0.6615277,0.42472708,-0.07088548,-0.040014558,0.91736233,0.23993622,-0.15076423,-0.015000853,0.271248,-0.105968215,-0.6184076,-0.5786968,-0.07649439,819.9634,807.8755,807.8755,816.337,777.25275,-0.2354736328125,-0.007080078125,0.9892578125,3.33465576171875,-0.478515625,0.52337646484375,1,1.0,1.0,1.0,1.0,50.00
2022-11-23 20:26:00.685,0.60352486,-0.36572003,-0.19790567,0.70771563,0.5232639,-0.2077421,-0.2676476,0.6615277,0.42472708,-0.07088548,-0.040014558,0.91736233,0.23993622,-0.15076423,-0.015000853,0.271248,-0.105968215,-0.6184076,-0.5786968,-0.07649439,782.49084,810.293,805.4579,788.1319,622.1245,-0.2354736328125,-0.007080078125,0.9892578125,3.33465576171875,-0.478515625,0.52337646484375,1,1.0,1.0,1.0,1.0,50.00
2022-11-23 20:26:00.686,0.60352486,-0.36572003,-0.19790567,0.70771563,0.5232639,-0.2077421,-0.2676476,0.6615277,0.42472708,-0.07088548,-0.040014558,0.91736233,0.23993622,-0.15076423,-0.015000853,0.271248,-0.105968215,-0.6184076,-0.5786968,-0.07649439,792.96704,809.0842,803.44324,801.02563,662.01465,-0.2354736328125,-0.007080078125,0.9892578125,3.33465576171875,-0.478515625,0.52337646484375,1,1.0,1.0,1.0,1.0,50.00
2022-11-23 20:26:00.686,0.60352486,-0.36572003,-0.19790567,0.70771563,0.5232639,-0.2077421,-0.2676476,0.6615277,0.42472708,-0.07088548,-0.040014558,0.91736233,0.23993622,-0.15076423,-0.015000853,0.271248,-0.105968215,-0.6184076,-0.5786968,-0.07649439,827.619,809.0842,808.2784,830.84247,846.55676,-0.2354736328125,-0.007080078125,0.9892578125,3.33465576171875,-0.478515625,0.52337646484375,1,1.0,1.0,1.0,1.0,50.00
2022-11-23 20:26:00.686,0.60352486,-0.36572003,-0.19790567,0.70771563,0.5232639,-0.2077421,-0.2676476,0.6615277,0.42472708,-0.07088548,-0.040014558,0.91736233,0.23993622,-0.15076423,-0.015000853,0.271248,-0.105968215,-0.6184076,-0.5786968,-0.07649439,824.7985,809.0842,808.68134,813.91943,875.56775,-0.2354736328125,-0.007080078125,0.9892578125,3.33465576171875,-0.478515625,0.52337646484375,1,1.0,1.0,1.0,1.0,50.00
2022-11-23 20:26:00.687,0.60352486,-0.36572003,-0.19790567,0.70771563,0.5232639,-0.2077421,-0.2676476,0.6615277,0.42472708,-0.07088548,-0.040014558,0.91736233,0.23993622,-0.15076423,-0.015000853,0.271248,-0.105968215,-0.6184076,-0.5786968,-0.07649439,791.75824,806.6667,805.8608,779.2674,770.0,-0.2354736328125,-0.007080078125,0.9892578125,3.33465576171875,-0.478515625,0.52337646484375,1,1.0,1.0,1.0,1.0,50.00
2022-11-23 20:26:00.687,0.60352486,-0.36572003,-0.19790567,0.70771563,0.5232639,-0.2077421,-0.2676476,0.6615277,0.42472708,-0.07088548,-0.040014558,0.91736233,0.23993622,-0.15076423,-0.015000853,0.271248,-0.105968215,-0.6184076,-0.5786968,-0.07649439,789.34064,808.68134,803.8461,784.5055,979.12085,-0.2354736328125,-0.007080078125,0.9892578125,3.33465576171875,-0.478515625,0.52337646484375,1,1.0,1.0,1.0,1.0,50.00
2022-11-23 20:26:00.687,0.60352486,-0.36572003,-0.19790567,0.70771563,0.5232639,-0.2077421,-0.2676476,0.6615277,0.42472708,-0.07088548,-0.040014558,0.91736233,0.23993622,-0.15076423,-0.015000853,0.271248,-0.105968215,-0.6184076,-0.5786968,-0.07649439,820.3663,808.68134,801.02563,817.1429,1184.6154,-0.2354736328125,-0.007080078125,0.9892578125,3.33465576171875,-0.478515625,0.52337646484375,1,1.0,1.0,1.0,1.0,50.00
2022-11-23 20:26:00.687,0.60352486,-0.36572003,-0.19790567,0.70771563,0.5232639,-0.2077421,-0.2676476,0.6615277,0.42472708,-0.07088548,-0.040014558,0.91736233,0.23993622,-0.15076423,-0.015000853,0.271248,-0.105968215,-0.6184076,-0.5786968,-0.07649439,826.4103,807.8755,800.6227,811.0989,887.25275,-0.2354736328125,-0.007080078125,0.9892578125,3.33465576171875,-0.478515625,0.52337646484375,1,1.0,1.0,1.0,1.0,50.00
2022-11-23 20:26:00.687,0.60352486,-0.36572003,-0.19790567,0.70771563,0.5232639,-0.2077421,-0.2676476,0.6615277,0.42472708,-0.07088548,-0.040014558,0.91736233,0.23993622,-0.15076423,-0.015000853,0.271248,-0.105968215,-0.6184076,-0.5786968,-0.07649439,793.7729,807.8755,807.47253,786.1172,639.0476,-0.2354736328125,-0.007080078125,0.9892578125,3.33465576171875,-0.478515625,0.52337646484375,1,1.0,1.0,1.0,1.0,50.00
2022-11-23 20:26:00.688,0.60352486,-0.36572003,-0.19790567,0.70771563,0.5232639,-0.2077421,-0.2676476,0.6615277,0.42472708,-0.07088548,-0.040014558,0.91736233,0.23993622,-0.15076423,-0.015000853,0.271248,-0.105968215,-0.6184076,-0.5786968,-0.07649439,775.2381,807.0696,809.4872,787.326,624.1392,-0.2354736328125,-0.007080078125,0.9892578125,3.33465576171875,-0.478515625,0.52337646484375,1,1.0,1.0,1.0,1.0,50.00
2022-11-23 20:26:00.688,0.60352486,-0.36572003,-0.19790567,0.70771563,0.5232639,-0.2077421,-0.2676476,0.6615277,0.42472708,-0.07088548,-0.040014558,0.91736233,0.23993622,-0.15076423,-0.015000853,0.271248,-0.105968215,-0.6184076,-0.5786968,-0.07649439,812.3077,808.68134,805.8608,808.2784,769.19415,-0.2354736328125,-0.007080078125,0.9892578125,3.33465576171875,-0.478515625,0.52337646484375,1,1.0,1.0,1.0,1.0,50.00
2022-11-23 20:26:00.710,0.60352486,-0.36572003,-0.19790567,0.70771563,0.5232639,-0.2077421,-0.2676476,0.6615277,0.42472708,-0.07088548,-0.040014558,0.91736233,0.23993622,-0.15076423,-0.015000853,0.271248,-0.105968215,-0.6184076,-0.5786968,-0.07649439,834.0659,807.47253,806.26373,818.3516,855.42126,-0.25146484375,-0.001220703125,0.985107421875,4.299163818359375,0.052337646484375,-0.8074951171875,1,1.0,1.0,1.0,1.0,50.00
2022-11-23 20:26:00.711,0.60352486,-0.36572003,-0.19790567,0.70771563,0.5232639,-0.2077421,-0.2676476,0.6615277,0.42472708,-0.07088548,-0.040014558,0.91736233,0.23993622,-0.15076423,-0.015000853,0.271248,-0.105968215,-0.6184076,-0.5786968,-0.07649439,796.5934,802.6374,807.8755,797.8022,765.56775,-0.25146484375,-0.001220703125,0.985107421875,4.299163818359375,0.052337646484375,-0.8074951171875,1,1.0,1.0,1.0,1.0,50.00
2022-11-23 20:26:00.711,0.60352486,-0.36572003,-0.19790567,0.70771563,0.5232639,-0.2077421,-0.2676476,0.6615277,0.42472708,-0.07088548,-0.040014558,0.91736233,0.23993622,-0.15076423,-0.015000853,0.271248,-0.105968215,-0.6184076,-0.5786968,-0.07649439,764.35895,799.41394,805.8608,776.4469,719.6337,-0.25146484375,-0.001220703125,0.985107421875,4.299163818359375,0.052337646484375,-0.8074951171875,1,1.0,1.0,1.0,1.0,50.00
2022-11-23 20:26:00.711,0.6157719,-0.32706583,-0.20162928,0.717752,0.52237076,-0.17894037,-0.2906825,0.6640523,0.5279798,-0.059405457,-0.07850405,0.9107097,0.27621016,-0.14777926,-0.018620111,0.2673999,-0.10666964,-0.59575343,-0.55487883,-0.07205735,786.9231,797.3993,802.6374,796.99634,793.7729,-0.25146484375,-0.001220703125,0.985107421875,4.299163818359375,0.052337646484375,-0.8074951171875,1,1.0,1.0,1.0,1.0,50.00
2022-11-23 20:26:00.713,0.6157719,-0.32706583,-0.20162928,0.717752,0.52237076,-0.17894037,-0.2906825,0.6640523,0.5279798,-0.059405457,-0.07850405,0.9107097,0.27621016,-0.14777926,-0.018620111,0.2673999,-0.10666964,-0.59575343,-0.55487883,-0.07205735,813.5165,796.99634,798.60803,818.3516,807.8755,-0.25146484375,-0.001220703125,0.985107421875,4.299163818359375,0.052337646484375,-0.8074951171875,1,1.0,1.0,1.0,1.0,50.00
2022-11-23 20:26:00.713,0.6157719,-0.32706583,-0.20162928,0.717752,0.52237076,-0.17894037,-0.2906825,0.6640523,0.5279798,-0.059405457,-0.07850405,0.9107097,0.27621016,-0.14777926,-0.018620111,0.2673999,-0.10666964,-0.59575343,-0.55487883,-0.07205735,794.57874,795.78754,800.6227,802.23444,793.7729,-0.25146484375,-0.001220703125,0.985107421875,4.299163818359375,0.052337646484375,-0.8074951171875,1,1.0,1.0,1.0,1.0,50.00
2022-11-23 20:26:00.713,0.6157719,-0.32706583,-0.20162928,0.717752,0.52237076,-0.17894037,-0.2906825,0.6640523,0.5279798,-0.059405457,-0.07850405,0.9107097,0.27621016,-0.14777926,-0.018620111,0.2673999,-0.10666964,-0.59575343,-0.55487883,-0.07205735,756.7033,796.99634,801.4286,774.83514,882.01465,-0.25146484375,-0.001220703125,0.985107421875,4.299163818359375,0.052337646484375,-0.8074951171875,1,1.0,1.0,1.0,1.0,50.00
2022-11-23 20:26:00.714,0.6157719,-0.32706583,-0.20162928,0.717752,0.52237076,-0.17894037,-0.2906825,0.6640523,0.5279798,-0.059405457,-0.07850405,0.9107097,0.27621016,-0.14777926,-0.018620111,0.2673999,-0.10666964,-0.59575343,-0.55487883,-0.07205735,770.40295,799.011,799.41394,778.86444,799.011,-0.25146484375,-0.001220703125,0.985107421875,4.299163818359375,0.052337646484375,-0.8074951171875,1,1.0,1.0,1.0,1.0,50.00
2022-11-23 20:26:00.714,0.6157719,-0.32706583,-0.20162928,0.717752,0.52237076,-0.17894037,-0.2906825,0.6640523,0.5279798,-0.059405457,-0.07850405,0.9107097,0.27621016,-0.14777926,-0.018620111,0.2673999,-0.10666964,-0.59575343,-0.55487883,-0.07205735,807.0696,791.75824,798.60803,808.2784,767.1795,-0.25146484375,-0.001220703125,0.985107421875,4.299163818359375,0.052337646484375,-0.8074951171875,1,1.0,1.0,1.0,1.0,50.00
2022-11-23 20:26:00.714,0.6157719,-0.32706583,-0.20162928,0.717752,0.52237076,-0.17894037,-0.2906825,0.6640523,0.5279798,-0.059405457,-0.07850405,0.9107097,0.27621016,-0.14777926,-0.018620111,0.2673999,-0.10666964,-0.59575343,-0.55487883,-0.07205735,801.02563,790.9524,797.8022,804.2491,857.8388,-0.25146484375,-0.001220703125,0.985107421875,4.299163818359375,0.052337646484375,-0.8074951171875,1,1.0,1.0,1.0,1.0,50.00
2022-11-23 20:26:00.714,0.6157719,-0.32706583,-0.20162928,0.717752,0.52237076,-0.17894037,-0.2906825,0.6640523,0.5279798,-0.059405457,-0.07850405,0.9107097,0.27621016,-0.14777926,-0.018620111,0.2673999,-0.10666964,-0.59575343,-0.55487883,-0.07205735,764.7619,796.5934,801.02563,781.28204,826.4103,-0.25146484375,-0.001220703125,0.985107421875,4.299163818359375,0.052337646484375,-0.8074951171875,1,1.0,1.0,1.0,1.0,50.00
2022-11-23 20:26:00.715,0.6157719,-0.32706583,-0.20162928,0.717752,0.52237076,-0.17894037,-0.2906825,0.6640523,0.5279798,-0.059405457,-0.07850405,0.9107097,0.27621016,-0.14777926,-0.018620111,0.2673999,-0.10666964,-0.59575343,-0.55487883,-0.07205735,758.71796,800.2198,802.23444,766.77655,644.2857,-0.25146484375,-0.001220703125,0.985107421875,4.299163818359375,0.052337646484375,-0.8074951171875,1,1.0,1.0,1.0,1.0,50.00
2022-11-23 20:26:00.760,0.6157719,-0.32706583,-0.20162928,0.717752,0.52237076,-0.17894037,-0.2906825,0.6640523,0.5279798,-0.059405457,-0.07850405,0.9107097,0.27621016,-0.14777926,-0.018620111,0.2673999,-0.10666964,-0.59575343,-0.55487883,-0.07205735,798.60803,795.78754,800.6227,796.5934,699.0842,-0.23919677734375,0.00494384765625,0.98956298828125,5.75714111328125,-0.306549072265625,-0.874786376953125,1,1.0,1.0,1.0,1.0,50.00
2022-11-23 20:26:00.760,0.6157719,-0.32706583,-0.20162928,0.717752,0.52237076,-0.17894037,-0.2906825,0.6640523,0.5279798,-0.059405457,-0.07850405,0.9107097,0.27621016,-0.14777926,-0.018620111,0.2673999,-0.10666964,-0.59575343,-0.55487883,-0.07205735,803.0403,791.75824,795.78754,808.68134,854.21246,-0.23919677734375,0.00494384765625,0.98956298828125,5.75714111328125,-0.306549072265625,-0.874786376953125,1,1.0,1.0,1.0,1.0,50.00
2022-11-23 20:26:00.760,0.6157719,-0.32706583,-0.20162928,0.717752,0.52237076,-0.17894037,-0.2906825,0.6640523,0.5279798,-0.059405457,-0.07850405,0.9107097,0.27621016,-0.14777926,-0.018620111,0.2673999,-0.10666964,-0.59575343,-0.55487883,-0.07205735,772.4176,791.3553,791.3553,779.67035,759.5238,-0.23919677734375,0.00494384765625,0.98956298828125,5.75714111328125,-0.306549072265625,-0.874786376953125,1,1.0,1.0,1.0,1.0,50.00
2022-11-23 20:26:00.760,0.6157719,-0.32706583,-0.20162928,0.717752,0.52237076,-0.17894037,-0.2906825,0.6640523,0.5279798,-0.059405457,-0.07850405,0.9107097,0.27621016,-0.14777926,-0.018620111,0.2673999,-0.10666964,-0.59575343,-0.55487883,-0.07205735,763.1502,792.1612,797.3993,772.01465,607.619,-0.23919677734375,0.00494384765625,0.98956298828125,5.75714111328125,-0.306549072265625,-0.874786376953125,1,1.0,1.0,1.0,1.0,50.00
2022-11-23 20:26:00.761,0.6157719,-0.32706583,-0.20162928,0.717752,0.52237076,-0.17894037,-0.2906825,0.6640523,0.5279798,-0.059405457,-0.07850405,0.9107097,0.27621016,-0.14777926,-0.018620111,0.2673999,-0.10666964,-0.59575343,-0.55487883,-0.07205735,791.3553,792.5641,794.9817,792.5641,714.3956,-0.23919677734375,0.00494384765625,0.98956298828125,5.75714111328125,-0.306549072265625,-0.874786376953125,1,1.0,1.0,1.0,1.0,50.00
2022-11-23 20:26:00.761,0.6157719,-0.32706583,-0.20162928,0.717752,0.52237076,-0.17894037,-0.2906825,0.6640523,0.5279798,-0.059405457,-0.07850405,0.9107097,0.27621016,-0.14777926,-0.018620111,0.2673999,-0.10666964,-0.59575343,-0.55487883,-0.07205735,820.3663,793.36993,791.3553,814.7253,964.21246,-0.23919677734375,0.00494384765625,0.98956298828125,5.75714111328125,-0.306549072265625,-0.874786376953125,1,1.0,1.0,1.0,1.0,50.00
2022-11-23 20:26:00.761,0.6157719,-0.32706583,-0.20162928,0.717752,0.52237076,-0.17894037,-0.2906825,0.6640523,0.5279798,-0.059405457,-0.07850405,0.9107097,0.27621016,-0.14777926,-0.018620111,0.2673999,-0.10666964,-0.59575343,-0.55487883,-0.07205735,794.57874,795.78754,798.60803,796.5934,896.9231,-0.23919677734375,0.00494384765625,0.98956298828125,5.75714111328125,-0.306549072265625,-0.874786376953125,1,1.0,1.0,1.0,1.0,50.00
2022-11-23 20:26:00.761,0.6157719,-0.32706583,-0.20162928,0.717752,0.52237076,-0.17894037,-0.2906825,0.6640523,0.5279798,-0.059405457,-0.07850405,0.9107097,0.27621016,-0.14777926,-0.018620111,0.2673999,-0.10666964,-0.59575343,-0.55487883,-0.07205735,766.77655,795.38464,798.60803,776.8498,644.68866,-0.23919677734375,0.00494384765625,0.98956298828125,5.75714111328125,-0.306549072265625,-0.874786376953125,1,1.0,1.0,1.0,1.0,50.00
2022-11-23 20:26:00.761,0.6157719,-0.32706583,-0.20162928,0.717752,0.52237076,-0.17894037,-0.2906825,0.6640523,0.5279798,-0.059405457,-0.07850405,0.9107097,0.27621016,-0.14777926,-0.018620111,0.2673999,-0.10666964,-0.59575343,-0.55487883,-0.07205735,804.2491,794.17584,793.7729,804.65204,608.8278,-0.23919677734375,0.00494384765625,0.98956298828125,5.75714111328125,-0.306549072265625,-0.874786376953125,1,1.0,1.0,1.0,1.0,50.00
2022-11-23 20:26:00.762,0.6157719,-0.32706583,-0.20162928,0.717752,0.52237076,-0.17894037,-0.2906825,0.6640523,0.5279798,-0.059405457,-0.07850405,0.9107097,0.27621016,-0.14777926,-0.018620111,0.2673999,-0.10666964,-0.59575343,-0.55487883,-0.07205735,842.1245,799.011,797.8022,834.87177,880.80585,-0.23919677734375,0.00494384765625,0.98956298828125,5.75714111328125,-0.306549072265625,-0.874786376953125,1,1.0,1.0,1.0,1.0,50.00
2022-11-23 20:26:00.762,0.6157719,-0.32706583,-0.20162928,0.717752,0.52237076,-0.17894037,-0.2906825,0.6640523,0.5279798,-0.059405457,-0.07850405,0.9107097,0.27621016,-0.14777926,-0.018620111,0.2673999,-0.10666964,-0.59575343,-0.55487883,-0.07205735,787.72894,803.0403,804.2491,789.34064,961.39197,-0.23919677734375,0.00494384765625,0.98956298828125,5.75714111328125,-0.306549072265625,-0.874786376953125,1,1.0,1.0,1.0,1.0,50.00
2022-11-23 20:26:00.762,0.6157719,-0.32706583,-0.20162928,0.717752,0.52237076,-0.17894037,-0.2906825,0.6640523,0.5279798,-0.059405457,-0.07850405,0.9107097,0.27621016,-0.14777926,-0.018620111,0.2673999,-0.10666964,-0.59575343,-0.55487883,-0.07205735,734.94507,804.2491,807.0696,743.4066,796.99634,-0.23919677734375,0.00494384765625,0.98956298828125,5.75714111328125,-0.306549072265625,-0.874786376953125,1,1.0,1.0,1.0,1.0,50.00
2022-11-23 20:26:00.810,0.6157719,-0.32706583,-0.20162928,0.717752,0.52237076,-0.17894037,-0.2906825,0.6640523,0.5279798,-0.059405457,-0.07850405,0.9107097,0.27621016,-0.14777926,-0.018620111,0.2673999,-0.10666964,-0.59575343,-0.55487883,-0.07205735,745.42126,806.6667,811.50183,763.1502,736.1539,-0.2591552734375,0.00250244140625,0.9801025390625,4.42626953125,1.86920166015625,-1.487884521484375,1,1.0,1.0,1.0,1.0,50.00
2022-11-23 20:26:00.811,0.6157719,-0.32706583,-0.20162928,0.717752,0.52237076,-0.17894037,-0.2906825,0.6640523,0.5279798,-0.059405457,-0.07850405,0.9107097,0.27621016,-0.14777926,-0.018620111,0.2673999,-0.10666964,-0.59575343,-0.55487883,-0.07205735,778.0586,807.0696,811.9048,778.86444,892.0879,-0.2591552734375,0.00250244140625,0.9801025390625,4.42626953125,1.86920166015625,-1.487884521484375,1,1.0,1.0,1.0,1.0,50.00
2022-11-23 20:26:00.811,0.6157719,-0.32706583,-0.20162928,0.717752,0.52237076,-0.17894037,-0.2906825,0.6640523,0.5279798,-0.059405457,-0.07850405,0.9107097,0.27621016,-0.14777926,-0.018620111,0.2673999,-0.10666964,-0.59575343,-0.55487883,-0.07205735,767.1795,806.6667,811.50183,750.65936,906.5934,-0.2591552734375,0.00250244140625,0.9801025390625,4.42626953125,1.86920166015625,-1.487884521484375,1,1.0,1.0,1.0,1.0,50.00
2022-11-23 20:26:00.811,0.6157719,-0.32706583,-0.20162928,0.717752,0.52237076,-0.17894037,-0.2906825,0.6640523,0.5279798,-0.059405457,-0.07850405,0.9107097,0.27621016,-0.14777926,-0.018620111,0.2673999,-0.10666964,-0.59575343,-0.55487883,-0.07205735,713.9927,807.8755,814.3223,720.0366,653.1502,-0.2591552734375,0.00250244140625,0.9801025390625,4.42626953125,1.86920166015625,-1.487884521484375,1,1.0,1.0,1.0,1.0,50.00
2022-11-23 20:26:00.811,0.6157719,-0.32706583,-0.20162928,0.717752,0.52237076,-0.17894037,-0.2906825,0.6640523,0.5279798,-0.059405457,-0.07850405,0.9107097,0.27621016,-0.14777926,-0.018620111,0.2673999,-0.10666964,-0.59575343,-0.55487883,-0.07205735,685.78754,806.6667,816.337,710.7692,649.92676,-0.2591552734375,0.00250244140625,0.9801025390625,4.42626953125,1.86920166015625,-1.487884521484375,1,1.0,1.0,1.0,1.0,50.00
2022-11-23 20:26:00.812,0.6371033,-0.25950497,-0.18814386,0.72571427,0.5474022,-0.10598184,-0.26517478,0.67869836,0.7111038,0.030394474,-0.06423567,0.9107097,0.30189067,-0.1537251,-0.022223445,0.26057926,-0.10240611,-0.5746122,-0.52514374,-0.06994056,706.7399,802.6374,819.9634,719.2308,881.6117,-0.2591552734375,0.00250244140625,0.9801025390625,4.42626953125,1.86920166015625,-1.487884521484375,1,1.0,1.0,1.0,1.0,50.00
2022-11-23 20:26:00.813,0.6371033,-0.25950497,-0.18814386,0.72571427,0.5474022,-0.10598184,-0.26517478,0.67869836,0.7111038,0.030394474,-0.06423567,0.9107097,0.30189067,-0.1537251,-0.022223445,0.26057926,-0.10240611,-0.5746122,-0.52514374,-0.06994056,728.0952,807.0696,821.978,724.4689,922.3077,-0.2591552734375,0.00250244140625,0.9801025390625,4.42626953125,1.86920166015625,-1.487884521484375,1,1.0,1.0,1.0,1.0,50.00
2022-11-23 20:26:00.813,0.6371033,-0.25950497,-0.18814386,0.72571427,0.5474022,-0.10598184,-0.26517478,0.67869836,0.7111038,0.030394474,-0.06423567,0.9107097,0.30189067,-0.1537251,-0.022223445,0.26057926,-0.10240611,-0.5746122,-0.52514374,-0.06994056,692.23444,812.71063,819.9634,692.6374,738.5714,-0.2591552734375,0.00250244140625,0.9801025390625,4.42626953125,1.86920166015625,-1.487884521484375,1,1.0,1.0,1.0,1.0,50.00
2022-11-23 20:26:00.813,0.6371033,-0.25950497,-0.18814386,0.72571427,0.5474022,-0.10598184,-0.26517478,0.67869836,0.7111038,0.030394474,-0.06423567,0.9107097,0.30189067,-0.1537251,-0.022223445,0.26057926,-0.10240611,-0.5746122,-0.52514374,-0.06994056,663.6264,814.7253,823.5897,680.14655,683.36993,-0.2591552734375,0.00250244140625,0.9801025390625,4.42626953125,1.86920166015625,-1.487884521484375,1,1.0,1.0,1.0,1.0,50.00
2022-11-23 20:26:00.813,0.6371033,-0.25950497,-0.18814386,0.72571427,0.5474022,-0.10598184,-0.26517478,0.67869836,0.7111038,0.030394474,-0.06423567,0.9107097,0.30189067,-0.1537251,-0.022223445,0.26057926,-0.10240611,-0.5746122,-0.52514374,-0.06994056,688.60803,818.3516,820.7692,694.2491,930.3663,-0.2591552734375,0.00250244140625,0.9801025390625,4.42626953125,1.86920166015625,-1.487884521484375,1,1.0,1.0,1.0,1.0,50.00
2022-11-23 20:26:00.814,0.6371033,-0.25950497,-0.18814386,0.72571427,0.5474022,-0.10598184,-0.26517478,0.67869836,0.7111038,0.030394474,-0.06423567,0.9107097,0.30189067,-0.1537251,-0.022223445,0.26057926,-0.10240611,-0.5746122,-0.52514374,-0.06994056,726.4835,810.696,817.1429,711.5751,927.5458,-0.2591552734375,0.00250244140625,0.9801025390625,4.42626953125,1.86920166015625,-1.487884521484375,1,1.0,1.0,1.0,1.0,50.00
2022-11-23 20:26:00.814,0.6371033,-0.25950497,-0.18814386,0.72571427,0.5474022,-0.10598184,-0.26517478,0.67869836,0.7111038,0.030394474,-0.06423567,0.9107097,0.30189067,-0.1537251,-0.022223445,0.26057926,-0.10240611,-0.5746122,-0.52514374,-0.06994056,713.1868,809.0842,821.5751,706.337,777.6557,-0.2591552734375,0.00250244140625,0.9801025390625,4.42626953125,1.86920166015625,-1.487884521484375,1,1.0,1.0,1.0,1.0,50.00
2022-11-23 20:26:00.861,0.6371033,-0.25950497,-0.18814386,0.72571427,0.5474022,-0.10598184,-0.26517478,0.67869836,0.7111038,0.030394474,-0.06423567,0.9107097,0.30189067,-0.1537251,-0.022223445,0.26057926,-0.10240611,-0.5746122,-0.52514374,-0.06994056,676.52014,815.9341,821.978,677.72894,673.69965,-0.244140625,-0.00665283203125,0.98577880859375,2.85614013671875,0.59814453125,-3.058013916015625,1,1.0,1.0,1.0,1.0,50.00
2022-11-23 20:26:00.861,0.6371033,-0.25950497,-0.18814386,0.72571427,0.5474022,-0.10598184,-0.26517478,0.67869836,0.7111038,0.030394474,-0.06423567,0.9107097,0.30189067,-0.1537251,-0.022223445,0.26057926,-0.10240611,-0.5746122,-0.52514374,-0.06994056,698.68134,811.9048,816.337,701.0989,719.6337,-0.244140625,-0.00665283203125,0.98577880859375,2.85614013671875,0.59814453125,-3.058013916015625,1,1.0,1.0,1.0,1.0,50.00
2022-11-23 20:26:00.861,0.6371033,-0.25950497,-0.18814386,0.72571427,0.5474022,-0.10598184,-0.26517478,0.67869836,0.7111038,0.030394474,-0.06423567,0.9107097,0.30189067,-0.1537251,-0.022223445,0.26057926,-0.10240611,-0.5746122,-0.52514374,-0.06994056,733.73627,812.3077,815.9341,730.5128,898.5348,-0.244140625,-0.00665283203125,0.98577880859375,2.85614013671875,0.59814453125,-3.058013916015625,1,1.0,1.0,1.0,1.0,50.00
2022-11-23 20:26:00.862,0.6371033,-0.25950497,-0.18814386,0.72571427,0.5474022,-0.10598184,-0.26517478,0.67869836,0.7111038,0.030394474,-0.06423567,0.9107097,0.30189067,-0.1537251,-0.022223445,0.26057926,-0.10240611,-0.5746122,-0.52514374,-0.06994056,722.4542,811.50183,816.337,720.0366,809.4872,-0.244140625,-0.00665283203125,0.98577880859375,2.85614013671875,0.59814453125,-3.058013916015625,1,1.0,1.0,1.0,1.0,50.00
2022-11-23 20:26:00.862,0.6371033,-0.25950497,-0.18814386,0.72571427,0.5474022,-0.10598184,-0.26517478,0.67869836,0.7111038,0.030394474,-0.06423567,0.9107097,0.30189067,-0.1537251,-0.022223445,0.26057926,-0.10240611,-0.5746122,-0.52514374,-0.06994056,707.1429,815.9341,812.3077,702.3077,809.89014,-0.244140625,-0.00665283203125,0.98577880859375,2.85614013671875,0.59814453125,-3.058013916015625,1,1.0,1.0,1.0,1.0,50.00
2022-11-23 20:26:00.862,0.6371033,-0.25950497,-0.18814386,0.72571427,0.5474022,-0.10598184,-0.26517478,0.67869836,0.7111038,0.030394474,-0.06423567,0.9107097,0.30189067,-0.1537251,-0.022223445,0.26057926,-0.10240611,-0.5746122,-0.52514374,-0.06994056,722.4542,811.50183,809.0842,714.3956,871.9414,-0.244140625,-0.00665283203125,0.98577880859375,2.85614013671875,0.59814453125,-3.058013916015625,1,1.0,1.0,1.0,1.0,50.00
2022-11-23 20:26:00.862,0.6371033,-0.25950497,-0.18814386,0.72571427,0.5474022,-0.10598184,-0.26517478,0.67869836,0.7111038,0.030394474,-0.06423567,0.9107097,0.30189067,-0.1537251,-0.022223445,0.26057926,-0.10240611,-0.5746122,-0.52514374,-0.06994056,757.9121,809.89014,809.4872,740.58606,823.5897,-0.244140625,-0.00665283203125,0.98577880859375,2.85614013671875,0.59814453125,-3.058013916015625,1,1.0,1.0,1.0,1.0,50.00
2022-11-23 20:26:00.863,0.6371033,-0.25950497,-0.18814386,0.72571427,0.5474022,-0.10598184,-0.26517478,0.67869836,0.7111038,0.030394474,-0.06423567,0.9107097,0.30189067,-0.1537251,-0.022223445,0.26057926,-0.10240611,-0.5746122,-0.52514374,-0.06994056,771.2088,817.9487,810.696,745.42126,880.40295,-0.244140625,-0.00665283203125,0.98577880859375,2.85614013671875,0.59814453125,-3.058013916015625,1,1.0,1.0,1.0,1.0,50.00
2022-11-23 20:26:00.863,0.6371033,-0.25950497,-0.18814386,0.72571427,0.5474022,-0.10598184,-0.26517478,0.67869836,0.7111038,0.030394474,-0.06423567,0.9107097,0.30189067,-0.1537251,-0.022223445,0.26057926,-0.10240611,-0.5746122,-0.52514374,-0.06994056,746.63007,819.15753,811.9048,733.73627,778.46155,-0.244140625,-0.00665283203125,0.98577880859375,2.85614013671875,0.59814453125,-3.058013916015625,1,1.0,1.0,1.0,1.0,50.00
2022-11-23 20:26:00.863,0.6371033,-0.25950497,-0.18814386,0.72571427,0.5474022,-0.10598184,-0.26517478,0.67869836,0.7111038,0.030394474,-0.06423567,0.9107097,0.30189067,-0.1537251,-0.022223445,0.26057926,-0.10240611,-0.5746122,-0.52514374,-0.06994056,740.18317,817.1429,812.3077,745.0183,711.978,-0.244140625,-0.00665283203125,0.98577880859375,2.85614013671875,0.59814453125,-3.058013916015625,1,1.0,1.0,1.0,1.0,50.00
2022-11-23 20:26:00.863,0.6371033,-0.25950497,-0.18814386,0.72571427,0.5474022,-0.10598184,-0.26517478,0.67869836,0.7111038,0.030394474,-0.06423567,0.9107097,0.30189067,-0.1537251,-0.022223445,0.26057926,-0.10240611,-0.5746122,-0.52514374,-0.06994056,761.13556,811.0989,817.1429,757.9121,770.80585,-0.244140625,-0.00665283203125,0.98577880859375,2.85614013671875,0.59814453125,-3.058013916015625,1,1.0,1.0,1.0,1.0,50.00
2022-11-23 20:26:00.864,0.6371033,-0.25950497,-0.18814386,0.72571427,0.5474022,-0.10598184,-0.26517478,0.67869836,0.7111038,0.030394474,-0.06423567,0.9107097,0.30189067,-0.1537251,-0.022223445,0.26057926,-0.10240611,-0.5746122,-0.52514374,-0.06994056,783.2967,807.47253,814.3223,765.56775,783.69965,-0.244140625,-0.00665283203125,0.98577880859375,2.85614013671875,0.59814453125,-3.058013916015625,1,1.0,1.0,1.0,1.0,50.00
2022-11-23 20:26:00.886,0.6371033,-0.25950497,-0.18814386,0.72571427,0.5474022,-0.10598184,-0.26517478,0.67869836,0.7111038,0.030394474,-0.06423567,0.9107097,0.30189067,-0.1537251,-0.022223445,0.26057926,-0.10240611,-0.5746122,-0.52514374,-0.06994056,758.71796,802.6374,807.0696,752.674,876.3736,-0.244140625,-0.00665283203125,0.98577880859375,2.85614013671875,0.59814453125,-3.058013916015625,1,1.0,1.0,1.0,1.0,50.00
2022-11-23 20:26:00.886,0.6371033,-0.25950497,-0.18814386,0.72571427,0.5474022,-0.10598184,-0.26517478,0.67869836,0.7111038,0.030394474,-0.06423567,0.9107097,0.30189067,-0.1537251,-0.022223445,0.26057926,-0.10240611,-0.5746122,-0.52514374,-0.06994056,730.5128,800.2198,805.4579,733.73627,899.7436,-0.244140625,-0.00665283203125,0.98577880859375,2.85614013671875,0.59814453125,-3.058013916015625,1,1.0,1.0,1.0,1.0,50.00
2022-11-23 20:26:00.886,0.6371033,-0.25950497,-0.18814386,0.72571427,0.5474022,-0.10598184,-0.26517478,0.67869836,0.7111038,0.030394474,-0.06423567,0.9107097,0.30189067,-0.1537251,-0.022223445,0.26057926,-0.10240611,-0.5746122,-0.52514374,-0.06994056,758.315,795.38464,801.4286,757.1062,835.6777,-0.244140625,-0.00665283203125,0.98577880859375,2.85614013671875,0.59814453125,-3.058013916015625,1,1.0,1.0,1.0,1.0,50.00
2022-11-23 20:26:00.886,0.6371033,-0.25950497,-0.18814386,0.72571427,0.5474022,-0.10598184,-0.26517478,0.67869836,0.7111038,0.030394474,-0.06423567,0.9107097,0.30189067,-0.1537251,-0.022223445,0.26057926,-0.10240611,-0.5746122,-0.52514374,-0.06994056,794.17584,790.54944,806.26373,778.86444,942.0513,-0.244140625,-0.00665283203125,0.98577880859375,2.85614013671875,0.59814453125,-3.058013916015625,1,1.0,1.0,1.0,1.0,50.00
2022-11-23 20:26:00.887,0.6371033,-0.25950497,-0.18814386,0.72571427,0.5474022,-0.10598184,-0.26517478,0.67869836,0.7111038,0.030394474,-0.06423567,0.9107097,0.30189067,-0.1537251,-0.022223445,0.26057926,-0.10240611,-0.5746122,-0.52514374,-0.06994056,779.2674,796.1905,804.65204,767.5824,817.1429,-0.244140625,-0.00665283203125,0.98577880859375,2.85614013671875,0.59814453125,-3.058013916015625,1,1.0,1.0,1.0,1.0,50.00
2022-11-23 20:26:00.887,0.6371033,-0.25950497,-0.18814386,0.72571427,0.5474022,-0.10598184,-0.26517478,0.67869836,0.7111038,0.030394474,-0.06423567,0.9107097,0.30189067,-0.1537251,-0.022223445,0.26057926,-0.10240611,-0.5746122,-0.52514374,-0.06994056,747.4359,801.8315,797.8022,751.8681,664.43225,-0.244140625,-0.00665283203125,0.98577880859375,2.85614013671875,0.59814453125,-3.058013916015625,1,1.0,1.0,1.0,1.0,50.00
2022-11-23 20:26:00.887,0.6371033,-0.25950497,-0.18814386,0.72571427,0.5474022,-0.10598184,-0.26517478,0.67869836,0.7111038,0.030394474,-0.06423567,0.9107097,0.30189067,-0.1537251,-0.022223445,0.26057926,-0.10240611,-0.5746122,-0.52514374,-0.06994056,765.9707,801.8315,791.3553,768.3883,813.1135,-0.244140625,-0.00665283203125,0.98577880859375,2.85614013671875,0.59814453125,-3.058013916015625,1,1.0,1.0,1.0,1.0,50.00
2022-11-23 20:26:00.888,0.6456815,-0.1904029,-0.1555357,0.73664427,0.5610154,-0.0087781,-0.18349864,0.69879836,0.7111038,0.08880664,0.042051144,0.9107097,0.30325645,-0.16384695,-0.0268156,0.25817946,-0.095161825,-0.55818695,-0.5001688,-0.068852104,800.2198,799.41394,790.54944,794.17584,967.03296,-0.244140625,-0.00665283203125,0.98577880859375,2.85614013671875,0.59814453125,-3.058013916015625,1,1.0,1.0,1.0,1.0,50.00
2022-11-23 20:26:00.889,0.6456815,-0.1904029,-0.1555357,0.73664427,0.5610154,-0.0087781,-0.18349864,0.69879836,0.7111038,0.08880664,0.042051144,0.9107097,0.30325645,-0.16384695,-0.0268156,0.25817946,-0.095161825,-0.55818695,-0.5001688,-0.068852104,800.6227,799.81683,799.011,790.54944,1097.5824,-0.244140625,-0.00665283203125,0.98577880859375,2.85614013671875,0.59814453125,-3.058013916015625,1,1.0,1.0,1.0,1.0,50.00
2022-11-23 20:26:00.889,0.6456815,-0.1904029,-0.1555357,0.73664427,0.5610154,-0.0087781,-0.18349864,0.69879836,0.7111038,0.08880664,0.042051144,0.9107097,0.30325645,-0.16384695,-0.0268156,0.25817946,-0.095161825,-0.55818695,-0.5001688,-0.068852104,774.83514,801.02563,797.8022,771.2088,829.6337,-0.244140625,-0.00665283203125,0.98577880859375,2.85614013671875,0.59814453125,-3.058013916015625,1,1.0,1.0,1.0,1.0,50.00
2022-11-23 20:26:00.889,0.6456815,-0.1904029,-0.1555357,0.73664427,0.5610154,-0.0087781,-0.18349864,0.69879836,0.7111038,0.08880664,0.042051144,0.9107097,0.30325645,-0.16384695,-0.0268156,0.25817946,-0.095161825,-0.55818695,-0.5001688,-0.068852104,766.3736,798.20514,793.36993,774.43225,533.0769,-0.244140625,-0.00665283203125,0.98577880859375,2.85614013671875,0.59814453125,-3.058013916015625,1,1.0,1.0,1.0,1.0,50.00
2022-11-23 20:26:00.890,0.6456815,-0.1904029,-0.1555357,0.73664427,0.5610154,-0.0087781,-0.18349864,0.69879836,0.7111038,0.08880664,0.042051144,0.9107097,0.30325645,-0.16384695,-0.0268156,0.25817946,-0.095161825,-0.55818695,-0.5001688,-0.068852104,802.23444,797.3993,795.38464,805.4579,804.65204,-0.244140625,-0.00665283203125,0.98577880859375,2.85614013671875,0.59814453125,-3.058013916015625,1,1.0,1.0,1.0,1.0,50.00
2022-11-23 20:26:00.935,0.6456815,-0.1904029,-0.1555357,0.73664427,0.5610154,-0.0087781,-0.18349864,0.69879836,0.7111038,0.08880664,0.042051144,0.9107097,0.30325645,-0.16384695,-0.0268156,0.25817946,-0.095161825,-0.55818695,-0.5001688,-0.068852104,815.5311,799.011,796.1905,808.2784,955.34796,-0.2401123046875,-0.00396728515625,0.99908447265625,2.729034423828125,-2.691650390625,0.22430419921875,1,1.0,1.0,1.0,1.0,50.00
2022-11-23 20:26:00.935,0.6456815,-0.1904029,-0.1555357,0.73664427,0.5610154,-0.0087781,-0.18349864,0.69879836,0.7111038,0.08880664,0.042051144,0.9107097,0.30325645,-0.16384695,-0.0268156,0.25817946,-0.095161825,-0.55818695,-0.5001688,-0.068852104,786.52014,794.57874,797.3993,778.0586,712.7839,-0.2401123046875,-0.00396728515625,0.99908447265625,2.729034423828125,-2.691650390625,0.22430419921875,1,1.0,1.0,1.0,1.0,50.00
2022-11-23 20:26:00.936,0.6456815,-0.1904029,-0.1555357,0.73664427,0.5610154,-0.0087781,-0.18349864,0.69879836,0.7111038,0.08880664,0.042051144,0.9107097,0.30325645,-0.16384695,-0.0268156,0.25817946,-0.095161825,-0.55818695,-0.5001688,-0.068852104,778.86444,791.3553,794.57874,774.43225,569.7436,-0.2401123046875,-0.00396728515625,0.99908447265625,2.729034423828125,-2.691650390625,0.22430419921875,1,1.0,1.0,1.0,1.0,50.00
2022-11-23 20:26:00.936,0.6456815,-0.1904029,-0.1555357,0.73664427,0.5610154,-0.0087781,-0.18349864,0.69879836,0.7111038,0.08880664,0.042051144,0.9107097,0.30325645,-0.16384695,-0.0268156,0.25817946,-0.095161825,-0.55818695,-0.5001688,-0.068852104,813.91943,797.3993,796.1905,804.2491,695.8608,-0.2401123046875,-0.00396728515625,0.99908447265625,2.729034423828125,-2.691650390625,0.22430419921875,1,1.0,1.0,1.0,1.0,50.00
2022-11-23 20:26:00.936,0.6456815,-0.1904029,-0.1555357,0.73664427,0.5610154,-0.0087781,-0.18349864,0.69879836,0.7111038,0.08880664,0.042051144,0.9107097,0.30325645,-0.16384695,-0.0268156,0.25817946,-0.095161825,-0.55818695,-0.5001688,-0.068852104,835.6777,799.41394,796.1905,812.71063,826.8132,-0.2401123046875,-0.00396728515625,0.99908447265625,2.729034423828125,-2.691650390625,0.22430419921875,1,1.0,1.0,1.0,1.0,50.00
2022-11-23 20:26:00.936,0.6456815,-0.1904029,-0.1555357,0.73664427,0.5610154,-0.0087781,-0.18349864,0.69879836,0.7111038,0.08880664,0.042051144,0.9107097,0.30325645,-0.16384695,-0.0268156,0.25817946,-0.095161825,-0.55818695,-0.5001688,-0.068852104,808.68134,800.6227,794.57874,801.4286,817.9487,-0.2401123046875,-0.00396728515625,0.99908447265625,2.729034423828125,-2.691650390625,0.22430419921875,1,1.0,1.0,1.0,1.0,50.00
2022-11-23 20:26:00.937,0.6456815,-0.1904029,-0.1555357,0.73664427,0.5610154,-0.0087781,-0.18349864,0.69879836,0.7111038,0.08880664,0.042051144,0.9107097,0.30325645,-0.16384695,-0.0268156,0.25817946,-0.095161825,-0.55818695,-0.5001688,-0.068852104,789.34064,802.6374,796.99634,794.9817,740.58606,-0.2401123046875,-0.00396728515625,0.99908447265625,2.729034423828125,-2.691650390625,0.22430419921875,1,1.0,1.0,1.0,1.0,50.00
2022-11-23 20:26:00.937,0.6456815,-0.1904029,-0.1555357,0.73664427,0.5610154,-0.0087781,-0.18349864,0.69879836,0.7111038,0.08880664,0.042051144,0.9107097,0.30325645,-0.16384695,-0.0268156,0.25817946,-0.095161825,-0.55818695,-0.5001688,-0.068852104,811.9048,799.41394,798.20514,810.696,999.2674,-0.2401123046875,-0.00396728515625,0.99908447265625,2.729034423828125,-2.691650390625,0.22430419921875,1,1.0,1.0,1.0,1.0,50.00
2022-11-23 20:26:00.937,0.6456815,-0.1904029,-0.1555357,0.73664427,0.5610154,-0.0087781,-0.18349864,0.69879836,0.7111038,0.08880664,0.042051144,0.9107097,0.30325645,-0.16384695,-0.0268156,0.25817946,-0.095161825,-0.55818695,-0.5001688,-0.068852104,840.9158,793.36993,798.20514,830.84247,1272.0513,-0.2401123046875,-0.00396728515625,0.99908447265625,2.729034423828125,-2.691650390625,0.22430419921875,1,1.0,1.0,1.0,1.0,50.00
2022-11-23 20:26:00.937,0.6456815,-0.1904029,-0.1555357,0.73664427,0.5610154,-0.0087781,-0.18349864,0.69879836,0.7111038,0.08880664,0.042051144,0.9107097,0.30325645,-0.16384695,-0.0268156,0.25817946,-0.095161825,-0.55818695,-0.5001688,-0.068852104,833.663,803.8461,800.2198,818.3516,959.3773,-0.2401123046875,-0.00396728515625,0.99908447265625,2.729034423828125,-2.691650390625,0.22430419921875,1,1.0,1.0,1.0,1.0,50.00
2022-11-23 20:26:00.937,0.6456815,-0.1904029,-0.1555357,0.73664427,0.5610154,-0.0087781,-0.18349864,0.69879836,0.7111038,0.08880664,0.042051144,0.9107097,0.30325645,-0.16384695,-0.0268156,0.25817946,-0.095161825,-0.55818695,-0.5001688,-0.068852104,804.65204,815.9341,801.8315,799.41394,693.44324,-0.2401123046875,-0.00396728515625,0.99908447265625,2.729034423828125,-2.691650390625,0.22430419921875,1,1.0,1.0,1.0,1.0,50.00
2022-11-23 20:26:00.938,0.6456815,-0.1904029,-0.1555357,0.73664427,0.5610154,-0.0087781,-0.18349864,0.69879836,0.7111038,0.08880664,0.042051144,0.9107097,0.30325645,-0.16384695,-0.0268156,0.25817946,-0.095161825,-0.55818695,-0.5001688,-0.068852104,805.4579,808.2784,800.6227,807.47253,777.6557,-0.2401123046875,-0.00396728515625,0.99908447265625,2.729034423828125,-2.691650390625,0.22430419921875,1,1.0,1.0,1.0,1.0,50.00
2022-11-23 20:26:00.985,0.6456815,-0.1904029,-0.1555357,0.73664427,0.5610154,-0.0087781,-0.18349864,0.69879836,0.7111038,0.08880664,0.042051144,0.9107097,0.30325645,-0.16384695,-0.0268156,0.25817946,-0.095161825,-0.55818695,-0.5001688,-0.068852104,844.5421,803.8461,802.6374,834.0659,890.87915,-0.23883056640625,-0.00762939453125,0.9903564453125,1.95892333984375,-1.114044189453125,0.500946044921875,1,1.0,1.0,1.0,1.0,50.00
2022-11-23 20:26:00.985,0.6456815,-0.1904029,-0.1555357,0.73664427,0.5610154,-0.0087781,-0.18349864,0.69879836,0.7111038,0.08880664,0.042051144,0.9107097,0.30325645,-0.16384695,-0.0268156,0.25817946,-0.095161825,-0.55818695,-0.5001688,-0.068852104,845.34796,805.8608,804.65204,835.2747,886.8498,-0.23883056640625,-0.00762939453125,0.9903564453125,1.95892333984375,-1.114044189453125,0.500946044921875,1,1.0,1.0,1.0,1.0,50.00
2022-11-23 20:26:00.985,0.6456815,-0.1904029,-0.1555357,0.73664427,0.5610154,-0.0087781,-0.18349864,0.69879836,0.7111038,0.08880664,0.042051144,0.9107097,0.30325645,-0.16384695,-0.0268156,0.25817946,-0.095161825,-0.55818695,-0.5001688,-0.068852104,809.89014,807.47253,802.23444,809.89014,799.41394,-0.23883056640625,-0.00762939453125,0.9903564453125,1.95892333984375,-1.114044189453125,0.500946044921875,1,1.0,1.0,1.0,1.0,50.00
2022-11-23 20:26:00.986,0.6456815,-0.1904029,-0.1555357,0.73664427,0.5610154,-0.0087781,-0.18349864,0.69879836,0.7111038,0.08880664,0.042051144,0.9107097,0.30325645,-0.16384695,-0.0268156,0.25817946,-0.095161825,-0.55818695,-0.5001688,-0.068852104,808.2784,806.26373,800.6227,811.50183,729.707,-0.23883056640625,-0.00762939453125,0.9903564453125,1.95892333984375,-1.114044189453125,0.500946044921875,1,1.0,1.0,1.0,1.0,50.00
2022-11-23 20:26:00.986,0.6456815,-0.1904029,-0.1555357,0.73664427,0.5610154,-0.0087781,-0.18349864,0.69879836,0.7111038,0.08880664,0.042051144,0.9107097,0.30325645,-0.16384695,-0.0268156,0.25817946,-0.095161825,-0.55818695,-0.5001688,-0.068852104,839.304,808.2784,802.23444,834.87177,846.9597,-0.23883056640625,-0.00762939453125,0.9903564453125,1.95892333984375,-1.114044189453125,0.500946044921875,1,1.0,1.0,1.0,1.0,50.00
2022-11-23 20:26:00.986,0.6456815,-0.1904029,-0.1555357,0.73664427,0.5610154,-0.0087781,-0.18349864,0.69879836,0.7111038,0.08880664,0.042051144,0.9107097,0.30325645,-0.16384695,-0.0268156,0.25817946,-0.095161825,-0.55818695,-0.5001688,-0.068852104,850.58606,810.293,802.6374,838.9011,909.011,-0.23883056640625,-0.00762939453125,0.9903564453125,1.95892333984375,-1.114044189453125,0.500946044921875,1,1.0,1.0,1.0,1.0,50.00
2022-11-23 20:26:00.986,0.6456815,-0.1904029,-0.1555357,0.73664427,0.5610154,-0.0087781,-0.18349864,0.69879836,0.7111038,0.08880664,0.042051144,0.9107097,0.30325645,-0.16384695,-0.0268156,0.25817946,-0.095161825,-0.55818695,-0.5001688,-0.068852104,819.5604,807.47253,805.05493,817.5458,732.52747,-0.23883056640625,-0.00762939453125,0.9903564453125,1.95892333984375,-1.114044189453125,0.500946044921875,1,1.0,1.0,1.0,1.0,50.00
2022-11-23 20:26:00.986,0.6456815,-0.1904029,-0.1555357,0.73664427,0.5610154,-0.0087781,-0.18349864,0.69879836,0.7111038,0.08880664,0.042051144,0.9107097,0.30325645,-0.16384695,-0.0268156,0.25817946,-0.095161825,-0.55818695,-0.5001688,-0.068852104,798.20514,804.2491,803.0403,812.3077,703.91943,-0.23883056640625,-0.00762939453125,0.9903564453125,1.95892333984375,-1.114044189453125,0.500946044921875,1,1.0,1.0,1.0,1.0,50.00
2022-11-23 20:26:00.987,0.6456815,-0.1904029,-0.1555357,0.73664427,0.5610154,-0.0087781,-0.18349864,0.69879836,0.7111038,0.08880664,0.042051144,0.9107097,0.30325645,-0.16384695,-0.0268156,0.25817946,-0.095161825,-0.55818695,-0.5001688,-0.068852104,822.7839,806.26373,801.02563,827.619,762.74725,-0.23883056640625,-0.00762939453125,0.9903564453125,1.95892333984375,-1.114044189453125,0.500946044921875,1,1.0,1.0,1.0,1.0,50.00
2022-11-23 20:26:00,,,,,,,,,,,,,,,,,,,,,,,,,,,,,,,,,,,,,,/muse/elements/blink
2022-11-23 20:26:00.987,0.6513365,-0.14245291,-0.11195783,0.750254,0.58390695,0.094532564,-0.06942348,0.7235217,0.7111038,0.1174509,0.11045034,0.9107097,0.30808973,-0.17467141,-0.03209171,0.26041946,-0.08548577,-0.5485056,-0.48929617,-0.07011314,848.1685,807.47253,803.0403,838.9011,796.5934,-0.23883056640625,-0.00762939453125,0.9903564453125,1.95892333984375,-1.114044189453125,0.500946044921875,1,1.0,1.0,1.0,1.0,50.00
2022-11-23 20:26:00.988,0.6513365,-0.14245291,-0.11195783,0.750254,0.58390695,0.094532564,-0.06942348,0.7235217,0.7111038,0.1174509,0.11045034,0.9107097,0.30808973,-0.17467141,-0.03209171,0.26041946,-0.08548577,-0.5485056,-0.48929617,-0.07011314,827.2161,804.65204,799.81683,822.381,768.7912,-0.23883056640625,-0.00762939453125,0.9903564453125,1.95892333984375,-1.114044189453125,0.500946044921875,1,1.0,1.0,1.0,1.0,50.00
2022-11-23 20:26:00.988,0.6513365,-0.14245291,-0.11195783,0.750254,0.58390695,0.094532564,-0.06942348,0.7235217,0.7111038,0.1174509,0.11045034,0.9107097,0.30808973,-0.17467141,-0.03209171,0.26041946,-0.08548577,-0.5485056,-0.48929617,-0.07011314,807.0696,812.3077,801.4286,808.2784,662.8205,-0.23883056640625,-0.00762939453125,0.9903564453125,1.95892333984375,-1.114044189453125,0.500946044921875,1,1.0,1.0,1.0,1.0,50.00
2022-11-23 20:26:01.032,0.6513365,-0.14245291,-0.11195783,0.750254,0.58390695,0.094532564,-0.06942348,0.7235217,0.7111038,0.1174509,0.11045034,0.9107097,0.30808973,-0.17467141,-0.03209171,0.26041946,-0.08548577,-0.5485056,-0.48929617,-0.07011314,830.4396,815.5311,801.4286,822.381,676.1172,-0.25030517578125,-0.01513671875,0.9859619140625,1.816864013671875,2.100982666015625,-0.3887939453125,1,1.0,1.0,1.0,1.0,50.00
2022-11-23 20:26:01.033,0.6513365,-0.14245291,-0.11195783,0.750254,0.58390695,0.094532564,-0.06942348,0.7235217,0.7111038,0.1174509,0.11045034,0.9107097,0.30808973,-0.17467141,-0.03209171,0.26041946,-0.08548577,-0.5485056,-0.48929617,-0.07011314,859.0476,812.71063,799.011,840.5128,764.7619,-0.25030517578125,-0.01513671875,0.9859619140625,1.816864013671875,2.100982666015625,-0.3887939453125,1,1.0,1.0,1.0,1.0,50.00
2022-11-23 20:26:01.033,0.6513365,-0.14245291,-0.11195783,0.750254,0.58390695,0.094532564,-0.06942348,0.7235217,0.7111038,0.1174509,0.11045034,0.9107097,0.30808973,-0.17467141,-0.03209171,0.26041946,-0.08548577,-0.5485056,-0.48929617,-0.07011314,842.9304,808.68134,801.8315,835.2747,768.3883,-0.25030517578125,-0.01513671875,0.9859619140625,1.816864013671875,2.100982666015625,-0.3887939453125,1,1.0,1.0,1.0,1.0,50.00
2022-11-23 20:26:01.034,0.6513365,-0.14245291,-0.11195783,0.750254,0.58390695,0.094532564,-0.06942348,0.7235217,0.7111038,0.1174509,0.11045034,0.9107097,0.30808973,-0.17467141,-0.03209171,0.26041946,-0.08548577,-0.5485056,-0.48929617,-0.07011314,807.47253,809.0842,800.2198,800.6227,641.8681,-0.25030517578125,-0.01513671875,0.9859619140625,1.816864013671875,2.100982666015625,-0.3887939453125,1,1.0,1.0,1.0,1.0,50.00
2022-11-23 20:26:01.034,0.6513365,-0.14245291,-0.11195783,0.750254,0.58390695,0.094532564,-0.06942348,0.7235217,0.7111038,0.1174509,0.11045034,0.9107097,0.30808973,-0.17467141,-0.03209171,0.26041946,-0.08548577,-0.5485056,-0.48929617,-0.07011314,813.91943,811.9048,797.3993,802.23444,562.8938,-0.25030517578125,-0.01513671875,0.9859619140625,1.816864013671875,2.100982666015625,-0.3887939453125,1,1.0,1.0,1.0,1.0,50.00
2022-11-23 20:26:01.034,0.6513365,-0.14245291,-0.11195783,0.750254,0.58390695,0.094532564,-0.06942348,0.7235217,0.7111038,0.1174509,0.11045034,0.9107097,0.30808973,-0.17467141,-0.03209171,0.26041946,-0.08548577,-0.5485056,-0.48929617,-0.07011314,838.0952,808.2784,802.23444,832.8571,724.4689,-0.25030517578125,-0.01513671875,0.9859619140625,1.816864013671875,2.100982666015625,-0.3887939453125,1,1.0,1.0,1.0,1.0,50.00
2022-11-23 20:26:01.034,0.6513365,-0.14245291,-0.11195783,0.750254,0.58390695,0.094532564,-0.06942348,0.7235217,0.7111038,0.1174509,0.11045034,0.9107097,0.30808973,-0.17467141,-0.03209171,0.26041946,-0.08548577,-0.5485056,-0.48929617,-0.07011314,836.8865,807.8755,799.41394,820.3663,1048.4249,-0.25030517578125,-0.01513671875,0.9859619140625,1.816864013671875,2.100982666015625,-0.3887939453125,1,1.0,1.0,1.0,1.0,50.00
2022-11-23 20:26:01.034,0.6513365,-0.14245291,-0.11195783,0.750254,0.58390695,0.094532564,-0.06942348,0.7235217,0.7111038,0.1174509,0.11045034,0.9107097,0.30808973,-0.17467141,-0.03209171,0.26041946,-0.08548577,-0.5485056,-0.48929617,-0.07011314,801.4286,810.293,799.41394,795.78754,964.21246,-0.25030517578125,-0.01513671875,0.9859619140625,1.816864013671875,2.100982666015625,-0.3887939453125,1,1.0,1.0,1.0,1.0,50.00
2022-11-23 20:26:01.035,0.6513365,-0.14245291,-0.11195783,0.750254,0.58390695,0.094532564,-0.06942348,0.7235217,0.7111038,0.1174509,0.11045034,0.9107097,0.30808973,-0.17467141,-0.03209171,0.26041946,-0.08548577,-0.5485056,-0.48929617,-0.07011314,790.54944,811.9048,800.2198,800.6227,632.1978,-0.25030517578125,-0.01513671875,0.9859619140625,1.816864013671875,2.100982666015625,-0.3887939453125,1,1.0,1.0,1.0,1.0,50.00
2022-11-23 20:26:01.035,0.6513365,-0.14245291,-0.11195783,0.750254,0.58390695,0.094532564,-0.06942348,0.7235217,0.7111038,0.1174509,0.11045034,0.9107097,0.30808973,-0.17467141,-0.03209171,0.26041946,-0.08548577,-0.5485056,-0.48929617,-0.07011314,825.2015,808.68134,801.02563,823.1868,767.98535,-0.25030517578125,-0.01513671875,0.9859619140625,1.816864013671875,2.100982666015625,-0.3887939453125,1,1.0,1.0,1.0,1.0,50.00
2022-11-23 20:26:01.035,0.6513365,-0.14245291,-0.11195783,0.750254,0.58390695,0.094532564,-0.06942348,0.7235217,0.7111038,0.1174509,0.11045034,0.9107097,0.30808973,-0.17467141,-0.03209171,0.26041946,-0.08548577,-0.5485056,-0.48929617,-0.07011314,841.31866,803.0403,802.23444,828.4249,897.326,-0.25030517578125,-0.01513671875,0.9859619140625,1.816864013671875,2.100982666015625,-0.3887939453125,1,1.0,1.0,1.0,1.0,50.00
2022-11-23 20:26:01.035,0.6513365,-0.14245291,-0.11195783,0.750254,0.58390695,0.094532564,-0.06942348,0.7235217,0.7111038,0.1174509,0.11045034,0.9107097,0.30808973,-0.17467141,-0.03209171,0.26041946,-0.08548577,-0.5485056,-0.48929617,-0.07011314,803.44324,800.2198,799.81683,803.0403,776.8498,-0.25030517578125,-0.01513671875,0.9859619140625,1.816864013671875,2.100982666015625,-0.3887939453125,1,1.0,1.0,1.0,1.0,50.00
2022-11-23 20:26:01.085,0.6513365,-0.14245291,-0.11195783,0.750254,0.58390695,0.094532564,-0.06942348,0.7235217,0.7111038,0.1174509,0.11045034,0.9107097,0.30808973,-0.17467141,-0.03209171,0.26041946,-0.08548577,-0.5485056,-0.48929617,-0.07011314,769.59705,802.23444,798.60803,777.6557,716.8132,-0.2567138671875,-0.0162353515625,0.99163818359375,1.607513427734375,1.734619140625,-1.547698974609375,1,1.0,1.0,1.0,1.0,50.00
2022-11-23 20:26:01.085,0.6513365,-0.14245291,-0.11195783,0.750254,0.58390695,0.094532564,-0.06942348,0.7235217,0.7111038,0.1174509,0.11045034,0.9107097,0.30808973,-0.17467141,-0.03209171,0.26041946,-0.08548577,-0.5485056,-0.48929617,-0.07011314,799.011,804.2491,795.78754,796.99634,852.1978,-0.2567138671875,-0.0162353515625,0.99163818359375,1.607513427734375,1.734619140625,-1.547698974609375,1,1.0,1.0,1.0,1.0,50.00
2022-11-23 20:26:01.086,0.6513365,-0.14245291,-0.11195783,0.750254,0.58390695,0.094532564,-0.06942348,0.7235217,0.7111038,0.1174509,0.11045034,0.9107097,0.30808973,-0.17467141,-0.03209171,0.26041946,-0.08548577,-0.5485056,-0.48929617,-0.07011314,824.7985,805.4579,792.96704,815.9341,1026.6666,-0.2567138671875,-0.0162353515625,0.99163818359375,1.607513427734375,1.734619140625,-1.547698974609375,1,1.0,1.0,1.0,1.0,50.00
2022-11-23 20:26:01.086,0.6513365,-0.14245291,-0.11195783,0.750254,0.58390695,0.094532564,-0.06942348,0.7235217,0.7111038,0.1174509,0.11045034,0.9107097,0.30808973,-0.17467141,-0.03209171,0.26041946,-0.08548577,-0.5485056,-0.48929617,-0.07011314,799.41394,803.44324,789.7436,795.78754,859.85345,-0.2567138671875,-0.0162353515625,0.99163818359375,1.607513427734375,1.734619140625,-1.547698974609375,1,1.0,1.0,1.0,1.0,50.00
2022-11-23 20:26:01.086,0.6513365,-0.14245291,-0.11195783,0.750254,0.58390695,0.094532564,-0.06942348,0.7235217,0.7111038,0.1174509,0.11045034,0.9107097,0.30808973,-0.17467141,-0.03209171,0.26041946,-0.08548577,-0.5485056,-0.48929617,-0.07011314,769.59705,800.6227,791.75824,778.86444,628.97437,-0.2567138671875,-0.0162353515625,0.99163818359375,1.607513427734375,1.734619140625,-1.547698974609375,1,1.0,1.0,1.0,1.0,50.00
2022-11-23 20:26:01.086,0.6513365,-0.14245291,-0.11195783,0.750254,0.58390695,0.094532564,-0.06942348,0.7235217,0.7111038,0.1174509,0.11045034,0.9107097,0.30808973,-0.17467141,-0.03209171,0.26041946,-0.08548577,-0.5485056,-0.48929617,-0.07011314,782.49084,799.011,793.7729,789.34064,761.13556,-0.2567138671875,-0.0162353515625,0.99163818359375,1.607513427734375,1.734619140625,-1.547698974609375,1,1.0,1.0,1.0,1.0,50.00
2022-11-23 20:26:01.086,0.6513365,-0.14245291,-0.11195783,0.750254,0.58390695,0.094532564,-0.06942348,0.7235217,0.7111038,0.1174509,0.11045034,0.9107097,0.30808973,-0.17467141,-0.03209171,0.26041946,-0.08548577,-0.5485056,-0.48929617,-0.07011314,817.9487,799.41394,793.7729,815.12823,1100.403,-0.2567138671875,-0.0162353515625,0.99163818359375,1.607513427734375,1.734619140625,-1.547698974609375,1,1.0,1.0,1.0,1.0,50.00
2022-11-23 20:26:01.087,0.6513365,-0.14245291,-0.11195783,0.750254,0.58390695,0.094532564,-0.06942348,0.7235217,0.7111038,0.1174509,0.11045034,0.9107097,0.30808973,-0.17467141,-0.03209171,0.26041946,-0.08548577,-0.5485056,-0.48929617,-0.07011314,814.3223,799.81683,796.1905,809.89014,979.5238,-0.2567138671875,-0.0162353515625,0.99163818359375,1.607513427734375,1.734619140625,-1.547698974609375,1,1.0,1.0,1.0,1.0,50.00
2022-11-23 20:26:01.087,0.6513365,-0.14245291,-0.11195783,0.750254,0.58390695,0.094532564,-0.06942348,0.7235217,0.7111038,0.1174509,0.11045034,0.9107097,0.30808973,-0.17467141,-0.03209171,0.26041946,-0.08548577,-0.5485056,-0.48929617,-0.07011314,779.2674,798.20514,794.9817,785.31134,641.8681,-0.2567138671875,-0.0162353515625,0.99163818359375,1.607513427734375,1.734619140625,-1.547698974609375,1,1.0,1.0,1.0,1.0,50.00
2022-11-23 20:26:01.087,0.6513365,-0.14245291,-0.11195783,0.750254,0.58390695,0.094532564,-0.06942348,0.7235217,0.7111038,0.1174509,0.11045034,0.9107097,0.30808973,-0.17467141,-0.03209171,0.26041946,-0.08548577,-0.5485056,-0.48929617,-0.07011314,782.8938,800.6227,799.81683,791.3553,676.1172,-0.2567138671875,-0.0162353515625,0.99163818359375,1.607513427734375,1.734619140625,-1.547698974609375,1,1.0,1.0,1.0,1.0,50.00
2022-11-23 20:26:01.087,0.6513365,-0.14245291,-0.11195783,0.750254,0.58390695,0.094532564,-0.06942348,0.7235217,0.7111038,0.1174509,0.11045034,0.9107097,0.30808973,-0.17467141,-0.03209171,0.26041946,-0.08548577,-0.5485056,-0.48929617,-0.07011314,819.15753,803.0403,802.23444,821.5751,825.6044,-0.2567138671875,-0.0162353515625,0.99163818359375,1.607513427734375,1.734619140625,-1.547698974609375,1,1.0,1.0,1.0,1.0,50.00
2022-11-23 20:26:01.087,0.6561283,-0.1203133,-0.051016014,0.7619256,0.6105389,0.19812208,0.05693755,0.75083417,0.7111038,0.121296085,0.14648531,0.9107097,0.319215,-0.18256712,-0.038318947,0.26673362,-0.074683756,-0.5432626,-0.4934995,-0.07925767,818.7546,803.0403,798.20514,813.91943,790.54944,-0.2567138671875,-0.0162353515625,0.99163818359375,1.607513427734375,1.734619140625,-1.547698974609375,1,1.0,1.0,1.0,1.0,50.00
2022-11-23 20:26:01.135,0.6561283,-0.1203133,-0.051016014,0.7619256,0.6105389,0.19812208,0.05693755,0.75083417,0.7111038,0.121296085,0.14648531,0.9107097,0.319215,-0.18256712,-0.038318947,0.26673362,-0.074683756,-0.5432626,-0.4934995,-0.07925767,786.1172,801.8315,799.41394,786.9231,635.82416,-0.2567138671875,-0.0162353515625,0.99163818359375,1.607513427734375,1.734619140625,-1.547698974609375,1,1.0,1.0,1.0,1.0,50.00
2022-11-23 20:26:01.135,0.6561283,-0.1203133,-0.051016014,0.7619256,0.6105389,0.19812208,0.05693755,0.75083417,0.7111038,0.121296085,0.14648531,0.9107097,0.319215,-0.18256712,-0.038318947,0.26673362,-0.074683756,-0.5432626,-0.4934995,-0.07925767,776.8498,799.41394,802.6374,784.5055,593.1135,-0.2567138671875,-0.0162353515625,0.99163818359375,1.607513427734375,1.734619140625,-1.547698974609375,1,1.0,1.0,1.0,1.0,50.00
2022-11-23 20:26:01.136,0.6561283,-0.1203133,-0.051016014,0.7619256,0.6105389,0.19812208,0.05693755,0.75083417,0.7111038,0.121296085,0.14648531,0.9107097,0.319215,-0.18256712,-0.038318947,0.26673362,-0.074683756,-0.5432626,-0.4934995,-0.07925767,809.89014,799.81683,807.0696,812.3077,796.99634,-0.2567138671875,-0.0162353515625,0.99163818359375,1.607513427734375,1.734619140625,-1.547698974609375,1,1.0,1.0,1.0,1.0,50.00
2022-11-23 20:26:01.136,0.6561283,-0.1203133,-0.051016014,0.7619256,0.6105389,0.19812208,0.05693755,0.75083417,0.7111038,0.121296085,0.14648531,0.9107097,0.319215,-0.18256712,-0.038318947,0.26673362,-0.074683756,-0.5432626,-0.4934995,-0.07925767,832.4542,797.3993,809.89014,830.84247,859.0476,-0.2567138671875,-0.0162353515625,0.99163818359375,1.607513427734375,1.734619140625,-1.547698974609375,1,1.0,1.0,1.0,1.0,50.00
2022-11-23 20:26:01.136,0.6561283,-0.1203133,-0.051016014,0.7619256,0.6105389,0.19812208,0.05693755,0.75083417,0.7111038,0.121296085,0.14648531,0.9107097,0.319215,-0.18256712,-0.038318947,0.26673362,-0.074683756,-0.5432626,-0.4934995,-0.07925767,801.8315,798.60803,809.0842,805.8608,738.97437,-0.2567138671875,-0.0162353515625,0.99163818359375,1.607513427734375,1.734619140625,-1.547698974609375,1,1.0,1.0,1.0,1.0,50.00
2022-11-23 20:26:01.136,0.6561283,-0.1203133,-0.051016014,0.7619256,0.6105389,0.19812208,0.05693755,0.75083417,0.7111038,0.121296085,0.14648531,0.9107097,0.319215,-0.18256712,-0.038318947,0.26673362,-0.074683756,-0.5432626,-0.4934995,-0.07925767,785.7143,806.6667,807.0696,797.8022,797.8022,-0.2567138671875,-0.0162353515625,0.99163818359375,1.607513427734375,1.734619140625,-1.547698974609375,1,1.0,1.0,1.0,1.0,50.00
2022-11-23 20:26:01.137,0.6561283,-0.1203133,-0.051016014,0.7619256,0.6105389,0.19812208,0.05693755,0.75083417,0.7111038,0.121296085,0.14648531,0.9107097,0.319215,-0.18256712,-0.038318947,0.26673362,-0.074683756,-0.5432626,-0.4934995,-0.07925767,816.337,807.8755,811.50183,829.2308,848.97437,-0.2567138671875,-0.0162353515625,0.99163818359375,1.607513427734375,1.734619140625,-1.547698974609375,1,1.0,1.0,1.0,1.0,50.00
2022-11-23 20:26:01.137,0.6561283,-0.1203133,-0.051016014,0.7619256,0.6105389,0.19812208,0.05693755,0.75083417,0.7111038,0.121296085,0.14648531,0.9107097,0.319215,-0.18256712,-0.038318947,0.26673362,-0.074683756,-0.5432626,-0.4934995,-0.07925767,839.304,807.0696,813.1135,843.3333,938.8278,-0.2567138671875,-0.0162353515625,0.99163818359375,1.607513427734375,1.734619140625,-1.547698974609375,1,1.0,1.0,1.0,1.0,50.00
2022-11-23 20:26:01.137,0.6561283,-0.1203133,-0.051016014,0.7619256,0.6105389,0.19812208,0.05693755,0.75083417,0.7111038,0.121296085,0.14648531,0.9107097,0.319215,-0.18256712,-0.038318947,0.26673362,-0.074683756,-0.5432626,-0.4934995,-0.07925767,811.9048,807.47253,811.0989,815.9341,902.1612,-0.2567138671875,-0.0162353515625,0.99163818359375,1.607513427734375,1.734619140625,-1.547698974609375,1,1.0,1.0,1.0,1.0,50.00
2022-11-23 20:26:01.137,0.6561283,-0.1203133,-0.051016014,0.7619256,0.6105389,0.19812208,0.05693755,0.75083417,0.7111038,0.121296085,0.14648531,0.9107097,0.319215,-0.18256712,-0.038318947,0.26673362,-0.074683756,-0.5432626,-0.4934995,-0.07925767,786.1172,811.0989,812.3077,800.6227,967.4359,-0.2567138671875,-0.0162353515625,0.99163818359375,1.607513427734375,1.734619140625,-1.547698974609375,1,1.0,1.0,1.0,1.0,50.00
2022-11-23 20:26:01.137,0.6561283,-0.1203133,-0.051016014,0.7619256,0.6105389,0.19812208,0.05693755,0.75083417,0.7111038,0.121296085,0.14648531,0.9107097,0.319215,-0.18256712,-0.038318947,0.26673362,-0.074683756,-0.5432626,-0.4934995,-0.07925767,796.5934,810.293,814.7253,816.7399,1124.9817,-0.2567138671875,-0.0162353515625,0.99163818359375,1.607513427734375,1.734619140625,-1.547698974609375,1,1.0,1.0,1.0,1.0,50.00
2022-11-23 20:26:01.138,0.6561283,-0.1203133,-0.051016014,0.7619256,0.6105389,0.19812208,0.05693755,0.75083417,0.7111038,0.121296085,0.14648531,0.9107097,0.319215,-0.18256712,-0.038318947,0.26673362,-0.074683756,-0.5432626,-0.4934995,-0.07925767,828.022,809.4872,811.9048,834.87177,941.2454,-0.2567138671875,-0.0162353515625,0.99163818359375,1.607513427734375,1.734619140625,-1.547698974609375,1,1.0,1.0,1.0,1.0,50.00
2022-11-23 20:26:01.185,0.6561283,-0.1203133,-0.051016014,0.7619256,0.6105389,0.19812208,0.05693755,0.75083417,0.7111038,0.121296085,0.14648531,0.9107097,0.319215,-0.18256712,-0.038318947,0.26673362,-0.074683756,-0.5432626,-0.4934995,-0.07925767,832.8571,813.91943,810.293,829.2308,915.4579,-0.25091552734375,-0.0286865234375,0.98468017578125,1.5252685546875,0.635528564453125,-0.88226318359375,1,1.0,1.0,1.0,1.0,50.00
2022-11-23 20:26:01.185,0.6561283,-0.1203133,-0.051016014,0.7619256,0.6105389,0.19812208,0.05693755,0.75083417,0.7111038,0.121296085,0.14648531,0.9107097,0.319215,-0.18256712,-0.038318947,0.26673362,-0.074683756,-0.5432626,-0.4934995,-0.07925767,795.38464,811.0989,809.89014,809.0842,820.3663,-0.25091552734375,-0.0286865234375,0.98468017578125,1.5252685546875,0.635528564453125,-0.88226318359375,1,1.0,1.0,1.0,1.0,50.00
2022-11-23 20:26:01.185,0.6561283,-0.1203133,-0.051016014,0.7619256,0.6105389,0.19812208,0.05693755,0.75083417,0.7111038,0.121296085,0.14648531,0.9107097,0.319215,-0.18256712,-0.038318947,0.26673362,-0.074683756,-0.5432626,-0.4934995,-0.07925767,791.75824,808.68134,805.05493,810.293,596.337,-0.25091552734375,-0.0286865234375,0.98468017578125,1.5252685546875,0.635528564453125,-0.88226318359375,1,1.0,1.0,1.0,1.0,50.00
2022-11-23 20:26:01.186,0.6561283,-0.1203133,-0.051016014,0.7619256,0.6105389,0.19812208,0.05693755,0.75083417,0.7111038,0.121296085,0.14648531,0.9107097,0.319215,-0.18256712,-0.038318947,0.26673362,-0.074683756,-0.5432626,-0.4934995,-0.07925767,828.4249,808.2784,808.2784,833.2601,690.6227,-0.25091552734375,-0.0286865234375,0.98468017578125,1.5252685546875,0.635528564453125,-0.88226318359375,1,1.0,1.0,1.0,1.0,50.00
2022-11-23 20:26:01.186,0.6561283,-0.1203133,-0.051016014,0.7619256,0.6105389,0.19812208,0.05693755,0.75083417,0.7111038,0.121296085,0.14648531,0.9107097,0.319215,-0.18256712,-0.038318947,0.26673362,-0.074683756,-0.5432626,-0.4934995,-0.07925767,840.5128,808.68134,808.2784,838.9011,800.6227,-0.25091552734375,-0.0286865234375,0.98468017578125,1.5252685546875,0.635528564453125,-0.88226318359375,1,1.0,1.0,1.0,1.0,50.00
2022-11-23 20:26:01.186,0.6561283,-0.1203133,-0.051016014,0.7619256,0.6105389,0.19812208,0.05693755,0.75083417,0.7111038,0.121296085,0.14648531,0.9107097,0.319215,-0.18256712,-0.038318947,0.26673362,-0.074683756,-0.5432626,-0.4934995,-0.07925767,811.9048,807.8755,801.02563,809.0842,758.315,-0.25091552734375,-0.0286865234375,0.98468017578125,1.5252685546875,0.635528564453125,-0.88226318359375,1,1.0,1.0,1.0,1.0,50.00
2022-11-23 20:26:01.186,0.6561283,-0.1203133,-0.051016014,0.7619256,0.6105389,0.19812208,0.05693755,0.75083417,0.7111038,0.121296085,0.14648531,0.9107097,0.319215,-0.18256712,-0.038318947,0.26673362,-0.074683756,-0.5432626,-0.4934995,-0.07925767,797.8022,806.26373,803.8461,807.0696,666.4469,-0.25091552734375,-0.0286865234375,0.98468017578125,1.5252685546875,0.635528564453125,-0.88226318359375,1,1.0,1.0,1.0,1.0,50.00
2022-11-23 20:26:01.186,0.6561283,-0.1203133,-0.051016014,0.7619256,0.6105389,0.19812208,0.05693755,0.75083417,0.7111038,0.121296085,0.14648531,0.9107097,0.319215,-0.18256712,-0.038318947,0.26673362,-0.074683756,-0.5432626,-0.4934995,-0.07925767,824.7985,810.696,812.71063,836.8865,687.8022,-0.25091552734375,-0.0286865234375,0.98468017578125,1.5252685546875,0.635528564453125,-0.88226318359375,1,1.0,1.0,1.0,1.0,50.00
2022-11-23 20:26:01.187,0.6561283,-0.1203133,-0.051016014,0.7619256,0.6105389,0.19812208,0.05693755,0.75083417,0.7111038,0.121296085,0.14648531,0.9107097,0.319215,-0.18256712,-0.038318947,0.26673362,-0.074683756,-0.5432626,-0.4934995,-0.07925767,843.73627,811.9048,815.5311,842.1245,871.13556,-0.25091552734375,-0.0286865234375,0.98468017578125,1.5252685546875,0.635528564453125,-0.88226318359375,1,1.0,1.0,1.0,1.0,50.00
2022-11-23 20:26:01.187,0.6561283,-0.1203133,-0.051016014,0.7619256,0.6105389,0.19812208,0.05693755,0.75083417,0.7111038,0.121296085,0.14648531,0.9107097,0.319215,-0.18256712,-0.038318947,0.26673362,-0.074683756,-0.5432626,-0.4934995,-0.07925767,816.7399,808.68134,811.0989,822.381,998.0586,-0.25091552734375,-0.0286865234375,0.98468017578125,1.5252685546875,0.635528564453125,-0.88226318359375,1,1.0,1.0,1.0,1.0,50.00
2022-11-23 20:26:01.187,0.6561283,-0.1203133,-0.051016014,0.7619256,0.6105389,0.19812208,0.05693755,0.75083417,0.7111038,0.121296085,0.14648531,0.9107097,0.319215,-0.18256712,-0.038318947,0.26673362,-0.074683756,-0.5432626,-0.4934995,-0.07925767,784.10254,805.05493,808.2784,801.4286,718.022,-0.25091552734375,-0.0286865234375,0.98468017578125,1.5252685546875,0.635528564453125,-0.88226318359375,1,1.0,1.0,1.0,1.0,50.00
2022-11-23 20:26:01.187,0.6561283,-0.1203133,-0.051016014,0.7619256,0.6105389,0.19812208,0.05693755,0.75083417,0.7111038,0.121296085,0.14648531,0.9107097,0.319215,-0.18256712,-0.038318947,0.26673362,-0.074683756,-0.5432626,-0.4934995,-0.07925767,801.8315,807.0696,810.696,811.50183,564.10254,-0.25091552734375,-0.0286865234375,0.98468017578125,1.5252685546875,0.635528564453125,-0.88226318359375,1,1.0,1.0,1.0,1.0,50.00
2022-11-23 20:26:01.210,0.6561283,-0.1203133,-0.051016014,0.7619256,0.6105389,0.19812208,0.05693755,0.75083417,0.7111038,0.121296085,0.14648531,0.9107097,0.319215,-0.18256712,-0.038318947,0.26673362,-0.074683756,-0.5432626,-0.4934995,-0.07925767,834.0659,809.89014,812.3077,834.4689,853.8095,-0.25732421875,-0.02679443359375,0.9796142578125,2.714080810546875,0.2093505859375,0.79254150390625,1,1.0,1.0,1.0,1.0,50.00
2022-11-23 20:26:01.210,0.6692514,-0.11577362,0.0308005,0.77069324,0.6390318,0.29639494,0.1798162,0.7796965,0.7111038,0.121296085,0.16142164,0.9107097,0.33807597,-0.182698,-0.047811434,0.27703983,-0.066596195,-0.536311,-0.50532436,-0.097123295,820.7692,810.696,810.696,819.9634,819.5604,-0.25732421875,-0.02679443359375,0.9796142578125,2.714080810546875,0.2093505859375,0.79254150390625,1,1.0,1.0,1.0,1.0,50.00
2022-11-23 20:26:01.212,0.6692514,-0.11577362,0.0308005,0.77069324,0.6390318,0.29639494,0.1798162,0.7796965,0.7111038,0.121296085,0.16142164,0.9107097,0.33807597,-0.182698,-0.047811434,0.27703983,-0.066596195,-0.536311,-0.50532436,-0.097123295,783.2967,808.2784,807.47253,796.5934,572.1612,-0.25732421875,-0.02679443359375,0.9796142578125,2.714080810546875,0.2093505859375,0.79254150390625,1,1.0,1.0,1.0,1.0,50.00
2022-11-23 20:26:01.212,0.6692514,-0.11577362,0.0308005,0.77069324,0.6390318,0.29639494,0.1798162,0.7796965,0.7111038,0.121296085,0.16142164,0.9107097,0.33807597,-0.182698,-0.047811434,0.27703983,-0.066596195,-0.536311,-0.50532436,-0.097123295,788.93774,803.44324,805.4579,802.6374,678.93774,-0.25732421875,-0.02679443359375,0.9796142578125,2.714080810546875,0.2093505859375,0.79254150390625,1,1.0,1.0,1.0,1.0,50.00
2022-11-23 20:26:01.212,0.6692514,-0.11577362,0.0308005,0.77069324,0.6390318,0.29639494,0.1798162,0.7796965,0.7111038,0.121296085,0.16142164,0.9107097,0.33807597,-0.182698,-0.047811434,0.27703983,-0.066596195,-0.536311,-0.50532436,-0.097123295,826.0073,799.011,803.44324,821.1722,919.89014,-0.25732421875,-0.02679443359375,0.9796142578125,2.714080810546875,0.2093505859375,0.79254150390625,1,1.0,1.0,1.0,1.0,50.00
2022-11-23 20:26:01.212,0.6692514,-0.11577362,0.0308005,0.77069324,0.6390318,0.29639494,0.1798162,0.7796965,0.7111038,0.121296085,0.16142164,0.9107097,0.33807597,-0.182698,-0.047811434,0.27703983,-0.066596195,-0.536311,-0.50532436,-0.097123295,818.7546,796.1905,802.23444,815.5311,942.4542,-0.25732421875,-0.02679443359375,0.9796142578125,2.714080810546875,0.2093505859375,0.79254150390625,1,1.0,1.0,1.0,1.0,50.00
2022-11-23 20:26:01.212,0.6692514,-0.11577362,0.0308005,0.77069324,0.6390318,0.29639494,0.1798162,0.7796965,0.7111038,0.121296085,0.16142164,0.9107097,0.33807597,-0.182698,-0.047811434,0.27703983,-0.066596195,-0.536311,-0.50532436,-0.097123295,776.04395,796.1905,801.4286,790.9524,738.1685,-0.25732421875,-0.02679443359375,0.9796142578125,2.714080810546875,0.2093505859375,0.79254150390625,1,1.0,1.0,1.0,1.0,50.00
2022-11-23 20:26:01.213,0.6692514,-0.11577362,0.0308005,0.77069324,0.6390318,0.29639494,0.1798162,0.7796965,0.7111038,0.121296085,0.16142164,0.9107097,0.33807597,-0.182698,-0.047811434,0.27703983,-0.066596195,-0.536311,-0.50532436,-0.097123295,769.59705,796.5934,800.2198,785.31134,551.2088,-0.25732421875,-0.02679443359375,0.9796142578125,2.714080810546875,0.2093505859375,0.79254150390625,1,1.0,1.0,1.0,1.0,50.00
2022-11-23 20:26:01.213,0.6692514,-0.11577362,0.0308005,0.77069324,0.6390318,0.29639494,0.1798162,0.7796965,0.7111038,0.121296085,0.16142164,0.9107097,0.33807597,-0.182698,-0.047811434,0.27703983,-0.066596195,-0.536311,-0.50532436,-0.097123295,807.8755,803.0403,798.60803,811.9048,852.6007,-0.25732421875,-0.02679443359375,0.9796142578125,2.714080810546875,0.2093505859375,0.79254150390625,1,1.0,1.0,1.0,1.0,50.00
2022-11-23 20:26:01.213,0.6692514,-0.11577362,0.0308005,0.77069324,0.6390318,0.29639494,0.1798162,0.7796965,0.7111038,0.121296085,0.16142164,0.9107097,0.33807597,-0.182698,-0.047811434,0.27703983,-0.066596195,-0.536311,-0.50532436,-0.097123295,826.4103,801.4286,801.8315,821.978,1063.3334,-0.25732421875,-0.02679443359375,0.9796142578125,2.714080810546875,0.2093505859375,0.79254150390625,1,1.0,1.0,1.0,1.0,50.00
2022-11-23 20:26:01.213,0.6692514,-0.11577362,0.0308005,0.77069324,0.6390318,0.29639494,0.1798162,0.7796965,0.7111038,0.121296085,0.16142164,0.9107097,0.33807597,-0.182698,-0.047811434,0.27703983,-0.066596195,-0.536311,-0.50532436,-0.097123295,794.9817,799.41394,801.8315,794.17584,705.5311,-0.25732421875,-0.02679443359375,0.9796142578125,2.714080810546875,0.2093505859375,0.79254150390625,1,1.0,1.0,1.0,1.0,50.00
2022-11-23 20:26:01.213,0.6692514,-0.11577362,0.0308005,0.77069324,0.6390318,0.29639494,0.1798162,0.7796965,0.7111038,0.121296085,0.16142164,0.9107097,0.33807597,-0.182698,-0.047811434,0.27703983,-0.066596195,-0.536311,-0.50532436,-0.097123295,767.98535,804.65204,802.6374,781.28204,591.0989,-0.25732421875,-0.02679443359375,0.9796142578125,2.714080810546875,0.2093505859375,0.79254150390625,1,1.0,1.0,1.0,1.0,50.00
2022-11-23 20:26:01.260,0.6692514,-0.11577362,0.0308005,0.77069324,0.6390318,0.29639494,0.1798162,0.7796965,0.7111038,0.121296085,0.16142164,0.9107097,0.33807597,-0.182698,-0.047811434,0.27703983,-0.066596195,-0.536311,-0.50532436,-0.097123295,796.5934,803.0403,806.26373,797.3993,745.82416,-0.26715087890625,-0.01824951171875,0.98046875,4.42626953125,1.2261962890625,1.495361328125,1,1.0,1.0,1.0,1.0,50.00
2022-11-23 20:26:01.261,0.6692514,-0.11577362,0.0308005,0.77069324,0.6390318,0.29639494,0.1798162,0.7796965,0.7111038,0.121296085,0.16142164,0.9107097,0.33807597,-0.182698,-0.047811434,0.27703983,-0.066596195,-0.536311,-0.50532436,-0.097123295,825.2015,800.6227,803.8461,815.12823,840.9158,-0.26715087890625,-0.01824951171875,0.98046875,4.42626953125,1.2261962890625,1.495361328125,1,1.0,1.0,1.0,1.0,50.00
2022-11-23 20:26:01.261,0.6692514,-0.11577362,0.0308005,0.77069324,0.6390318,0.29639494,0.1798162,0.7796965,0.7111038,0.121296085,0.16142164,0.9107097,0.33807597,-0.182698,-0.047811434,0.27703983,-0.066596195,-0.536311,-0.50532436,-0.097123295,799.011,799.81683,802.6374,795.78754,743.8095,-0.26715087890625,-0.01824951171875,0.98046875,4.42626953125,1.2261962890625,1.495361328125,1,1.0,1.0,1.0,1.0,50.00
2022-11-23 20:26:01.261,0.6692514,-0.11577362,0.0308005,0.77069324,0.6390318,0.29639494,0.1798162,0.7796965,0.7111038,0.121296085,0.16142164,0.9107097,0.33807597,-0.182698,-0.047811434,0.27703983,-0.066596195,-0.536311,-0.50532436,-0.097123295,772.8205,800.6227,803.0403,776.04395,629.3773,-0.26715087890625,-0.01824951171875,0.98046875,4.42626953125,1.2261962890625,1.495361328125,1,1.0,1.0,1.0,1.0,50.00
2022-11-23 20:26:01.261,0.6692514,-0.11577362,0.0308005,0.77069324,0.6390318,0.29639494,0.1798162,0.7796965,0.7111038,0.121296085,0.16142164,0.9107097,0.33807597,-0.182698,-0.047811434,0.27703983,-0.066596195,-0.536311,-0.50532436,-0.097123295,792.96704,803.44324,805.05493,795.78754,714.3956,-0.26715087890625,-0.01824951171875,0.98046875,4.42626953125,1.2261962890625,1.495361328125,1,1.0,1.0,1.0,1.0,50.00
2022-11-23 20:26:01.261,0.6692514,-0.11577362,0.0308005,0.77069324,0.6390318,0.29639494,0.1798162,0.7796965,0.7111038,0.121296085,0.16142164,0.9107097,0.33807597,-0.182698,-0.047811434,0.27703983,-0.066596195,-0.536311,-0.50532436,-0.097123295,826.8132,804.65204,803.44324,815.9341,888.0586,-0.26715087890625,-0.01824951171875,0.98046875,4.42626953125,1.2261962890625,1.495361328125,1,1.0,1.0,1.0,1.0,50.00
2022-11-23 20:26:01.262,0.6692514,-0.11577362,0.0308005,0.77069324,0.6390318,0.29639494,0.1798162,0.7796965,0.7111038,0.121296085,0.16142164,0.9107097,0.33807597,-0.182698,-0.047811434,0.27703983,-0.066596195,-0.536311,-0.50532436,-0.097123295,813.1135,805.05493,801.4286,799.011,853.4066,-0.26715087890625,-0.01824951171875,0.98046875,4.42626953125,1.2261962890625,1.495361328125,1,1.0,1.0,1.0,1.0,50.00
2022-11-23 20:26:01.262,0.6692514,-0.11577362,0.0308005,0.77069324,0.6390318,0.29639494,0.1798162,0.7796965,0.7111038,0.121296085,0.16142164,0.9107097,0.33807597,-0.182698,-0.047811434,0.27703983,-0.066596195,-0.536311,-0.50532436,-0.097123295,776.8498,803.8461,799.81683,774.43225,722.8571,-0.26715087890625,-0.01824951171875,0.98046875,4.42626953125,1.2261962890625,1.495361328125,1,1.0,1.0,1.0,1.0,50.00
2022-11-23 20:26:01.262,0.6692514,-0.11577362,0.0308005,0.77069324,0.6390318,0.29639494,0.1798162,0.7796965,0.7111038,0.121296085,0.16142164,0.9107097,0.33807597,-0.182698,-0.047811434,0.27703983,-0.066596195,-0.536311,-0.50532436,-0.097123295,779.67035,806.6667,798.20514,779.67035,821.5751,-0.26715087890625,-0.01824951171875,0.98046875,4.42626953125,1.2261962890625,1.495361328125,1,1.0,1.0,1.0,1.0,50.00
2022-11-23 20:26:01.262,0.6692514,-0.11577362,0.0308005,0.77069324,0.6390318,0.29639494,0.1798162,0.7796965,0.7111038,0.121296085,0.16142164,0.9107097,0.33807597,-0.182698,-0.047811434,0.27703983,-0.066596195,-0.536311,-0.50532436,-0.097123295,815.9341,807.47253,800.6227,803.44324,951.31866,-0.26715087890625,-0.01824951171875,0.98046875,4.42626953125,1.2261962890625,1.495361328125,1,1.0,1.0,1.0,1.0,50.00
2022-11-23 20:26:01.263,0.6692514,-0.11577362,0.0308005,0.77069324,0.6390318,0.29639494,0.1798162,0.7796965,0.7111038,0.121296085,0.16142164,0.9107097,0.33807597,-0.182698,-0.047811434,0.27703983,-0.066596195,-0.536311,-0.50532436,-0.097123295,823.9927,806.6667,803.8461,806.6667,958.5714,-0.26715087890625,-0.01824951171875,0.98046875,4.42626953125,1.2261962890625,1.495361328125,1,1.0,1.0,1.0,1.0,50.00
2022-11-23 20:26:01.263,0.6692514,-0.11577362,0.0308005,0.77069324,0.6390318,0.29639494,0.1798162,0.7796965,0.7111038,0.121296085,0.16142164,0.9107097,0.33807597,-0.182698,-0.047811434,0.27703983,-0.066596195,-0.536311,-0.50532436,-0.097123295,792.1612,809.0842,800.2198,786.1172,745.42126,-0.26715087890625,-0.01824951171875,0.98046875,4.42626953125,1.2261962890625,1.495361328125,1,1.0,1.0,1.0,1.0,50.00
2022-11-23 20:26:01.311,0.6692514,-0.11577362,0.0308005,0.77069324,0.6390318,0.29639494,0.1798162,0.7796965,0.7111038,0.121296085,0.16142164,0.9107097,0.33807597,-0.182698,-0.047811434,0.27703983,-0.066596195,-0.536311,-0.50532436,-0.097123295,781.28204,809.4872,799.011,786.1172,585.8608,-0.2694091796875,-0.0079345703125,0.98126220703125,5.96649169921875,0.545806884765625,1.682281494140625,1,1.0,1.0,1.0,1.0,50.00
2022-11-23 20:26:01.312,0.6692514,-0.11577362,0.0308005,0.77069324,0.6390318,0.29639494,0.1798162,0.7796965,0.7111038,0.121296085,0.16142164,0.9107097,0.33807597,-0.182698,-0.047811434,0.27703983,-0.066596195,-0.536311,-0.50532436,-0.097123295,809.0842,807.47253,803.0403,805.05493,725.6777,-0.2694091796875,-0.0079345703125,0.98126220703125,5.96649169921875,0.545806884765625,1.682281494140625,1,1.0,1.0,1.0,1.0,50.00
2022-11-23 20:26:01.312,0.6692514,-0.11577362,0.0308005,0.77069324,0.6390318,0.29639494,0.1798162,0.7796965,0.7111038,0.121296085,0.16142164,0.9107097,0.33807597,-0.182698,-0.047811434,0.27703983,-0.066596195,-0.536311,-0.50532436,-0.097123295,831.2454,813.5165,810.696,817.5458,797.8022,-0.2694091796875,-0.0079345703125,0.98126220703125,5.96649169921875,0.545806884765625,1.682281494140625,1,1.0,1.0,1.0,1.0,50.00
2022-11-23 20:26:01.312,0.6940635,-0.12282982,0.119349875,0.7797171,0.67090034,0.3795762,0.28308403,0.81208545,0.7111038,0.121296085,0.18757395,0.9107097,0.36213472,-0.17247209,-0.06286298,0.29145968,-0.06759494,-0.5224485,-0.5151813,-0.11645321,808.2784,812.71063,810.293,802.23444,755.89746,-0.2694091796875,-0.0079345703125,0.98126220703125,5.96649169921875,0.545806884765625,1.682281494140625,1,1.0,1.0,1.0,1.0,50.00
2022-11-23 20:26:01.314,0.6940635,-0.12282982,0.119349875,0.7797171,0.67090034,0.3795762,0.28308403,0.81208545,0.7111038,0.121296085,0.18757395,0.9107097,0.36213472,-0.17247209,-0.06286298,0.29145968,-0.06759494,-0.5224485,-0.5151813,-0.11645321,783.69965,809.0842,806.6667,790.54944,717.2161,-0.2694091796875,-0.0079345703125,0.98126220703125,5.96649169921875,0.545806884765625,1.682281494140625,1,1.0,1.0,1.0,1.0,50.00
2022-11-23 20:26:01.314,0.6940635,-0.12282982,0.119349875,0.7797171,0.67090034,0.3795762,0.28308403,0.81208545,0.7111038,0.121296085,0.18757395,0.9107097,0.36213472,-0.17247209,-0.06286298,0.29145968,-0.06759494,-0.5224485,-0.5151813,-0.11645321,809.0842,809.4872,806.26373,812.71063,780.87915,-0.2694091796875,-0.0079345703125,0.98126220703125,5.96649169921875,0.545806884765625,1.682281494140625,1,1.0,1.0,1.0,1.0,50.00
2022-11-23 20:26:01.314,0.6940635,-0.12282982,0.119349875,0.7797171,0.67090034,0.3795762,0.28308403,0.81208545,0.7111038,0.121296085,0.18757395,0.9107097,0.36213472,-0.17247209,-0.06286298,0.29145968,-0.06759494,-0.5224485,-0.5151813,-0.11645321,841.31866,811.9048,808.2784,816.7399,888.0586,-0.2694091796875,-0.0079345703125,0.98126220703125,5.96649169921875,0.545806884765625,1.682281494140625,1,1.0,1.0,1.0,1.0,50.00
2022-11-23 20:26:01.314,0.6940635,-0.12282982,0.119349875,0.7797171,0.67090034,0.3795762,0.28308403,0.81208545,0.7111038,0.121296085,0.18757395,0.9107097,0.36213472,-0.17247209,-0.06286298,0.29145968,-0.06759494,-0.5224485,-0.5151813,-0.11645321,822.7839,813.91943,807.47253,804.65204,997.6557,-0.2694091796875,-0.0079345703125,0.98126220703125,5.96649169921875,0.545806884765625,1.682281494140625,1,1.0,1.0,1.0,1.0,50.00
2022-11-23 20:26:01.315,0.6940635,-0.12282982,0.119349875,0.7797171,0.67090034,0.3795762,0.28308403,0.81208545,0.7111038,0.121296085,0.18757395,0.9107097,0.36213472,-0.17247209,-0.06286298,0.29145968,-0.06759494,-0.5224485,-0.5151813,-0.11645321,786.52014,812.71063,801.4286,792.5641,938.022,-0.2694091796875,-0.0079345703125,0.98126220703125,5.96649169921875,0.545806884765625,1.682281494140625,1,1.0,1.0,1.0,1.0,50.00
2022-11-23 20:26:01.315,0.6940635,-0.12282982,0.119349875,0.7797171,0.67090034,0.3795762,0.28308403,0.81208545,0.7111038,0.121296085,0.18757395,0.9107097,0.36213472,-0.17247209,-0.06286298,0.29145968,-0.06759494,-0.5224485,-0.5151813,-0.11645321,799.81683,809.0842,800.6227,796.1905,713.9927,-0.2694091796875,-0.0079345703125,0.98126220703125,5.96649169921875,0.545806884765625,1.682281494140625,1,1.0,1.0,1.0,1.0,50.00
2022-11-23 20:26:01.315,0.6940635,-0.12282982,0.119349875,0.7797171,0.67090034,0.3795762,0.28308403,0.81208545,0.7111038,0.121296085,0.18757395,0.9107097,0.36213472,-0.17247209,-0.06286298,0.29145968,-0.06759494,-0.5224485,-0.5151813,-0.11645321,834.87177,811.50183,811.0989,829.6337,854.61536,-0.2694091796875,-0.0079345703125,0.98126220703125,5.96649169921875,0.545806884765625,1.682281494140625,1,1.0,1.0,1.0,1.0,50.00
2022-11-23 20:26:01.315,0.6940635,-0.12282982,0.119349875,0.7797171,0.67090034,0.3795762,0.28308403,0.81208545,0.7111038,0.121296085,0.18757395,0.9107097,0.36213472,-0.17247209,-0.06286298,0.29145968,-0.06759494,-0.5224485,-0.5151813,-0.11645321,819.5604,813.91943,818.3516,822.7839,906.5934,-0.2694091796875,-0.0079345703125,0.98126220703125,5.96649169921875,0.545806884765625,1.682281494140625,1,1.0,1.0,1.0,1.0,50.00
2022-11-23 20:26:01.361,0.6940635,-0.12282982,0.119349875,0.7797171,0.67090034,0.3795762,0.28308403,0.81208545,0.7111038,0.121296085,0.18757395,0.9107097,0.36213472,-0.17247209,-0.06286298,0.29145968,-0.06759494,-0.5224485,-0.5151813,-0.11645321,779.2674,813.5165,811.50183,793.7729,664.0293,-0.2694091796875,-0.0079345703125,0.98126220703125,5.96649169921875,0.545806884765625,1.682281494140625,1,1.0,1.0,1.0,1.0,50.00
2022-11-23 20:26:01.361,0.6940635,-0.12282982,0.119349875,0.7797171,0.67090034,0.3795762,0.28308403,0.81208545,0.7111038,0.121296085,0.18757395,0.9107097,0.36213472,-0.17247209,-0.06286298,0.29145968,-0.06759494,-0.5224485,-0.5151813,-0.11645321,787.326,814.3223,809.4872,798.20514,589.89014,-0.2694091796875,-0.0079345703125,0.98126220703125,5.96649169921875,0.545806884765625,1.682281494140625,1,1.0,1.0,1.0,1.0,50.00
2022-11-23 20:26:01.361,0.6940635,-0.12282982,0.119349875,0.7797171,0.67090034,0.3795762,0.28308403,0.81208545,0.7111038,0.121296085,0.18757395,0.9107097,0.36213472,-0.17247209,-0.06286298,0.29145968,-0.06759494,-0.5224485,-0.5151813,-0.11645321,826.4103,815.5311,814.7253,824.3956,774.0293,-0.2694091796875,-0.0079345703125,0.98126220703125,5.96649169921875,0.545806884765625,1.682281494140625,1,1.0,1.0,1.0,1.0,50.00
2022-11-23 20:26:01.362,0.6940635,-0.12282982,0.119349875,0.7797171,0.67090034,0.3795762,0.28308403,0.81208545,0.7111038,0.121296085,0.18757395,0.9107097,0.36213472,-0.17247209,-0.06286298,0.29145968,-0.06759494,-0.5224485,-0.5151813,-0.11645321,832.4542,815.5311,813.91943,823.1868,847.3626,-0.2694091796875,-0.0079345703125,0.98126220703125,5.96649169921875,0.545806884765625,1.682281494140625,1,1.0,1.0,1.0,1.0,50.00
2022-11-23 20:26:01.362,0.6940635,-0.12282982,0.119349875,0.7797171,0.67090034,0.3795762,0.28308403,0.81208545,0.7111038,0.121296085,0.18757395,0.9107097,0.36213472,-0.17247209,-0.06286298,0.29145968,-0.06759494,-0.5224485,-0.5151813,-0.11645321,794.17584,811.9048,810.696,788.93774,700.696,-0.2694091796875,-0.0079345703125,0.98126220703125,5.96649169921875,0.545806884765625,1.682281494140625,1,1.0,1.0,1.0,1.0,50.00
2022-11-23 20:26:01.362,0.6940635,-0.12282982,0.119349875,0.7797171,0.67090034,0.3795762,0.28308403,0.81208545,0.7111038,0.121296085,0.18757395,0.9107097,0.36213472,-0.17247209,-0.06286298,0.29145968,-0.06759494,-0.5224485,-0.5151813,-0.11645321,767.98535,807.8755,807.47253,780.87915,660.40295,-0.2694091796875,-0.0079345703125,0.98126220703125,5.96649169921875,0.545806884765625,1.682281494140625,1,1.0,1.0,1.0,1.0,50.00
2022-11-23 20:26:01.362,0.6940635,-0.12282982,0.119349875,0.7797171,0.67090034,0.3795762,0.28308403,0.81208545,0.7111038,0.121296085,0.18757395,0.9107097,0.36213472,-0.17247209,-0.06286298,0.29145968,-0.06759494,-0.5224485,-0.5151813,-0.11645321,802.23444,805.8608,807.0696,815.9341,863.8828,-0.2694091796875,-0.0079345703125,0.98126220703125,5.96649169921875,0.545806884765625,1.682281494140625,1,1.0,1.0,1.0,1.0,50.00
2022-11-23 20:26:01.363,0.6940635,-0.12282982,0.119349875,0.7797171,0.67090034,0.3795762,0.28308403,0.81208545,0.7111038,0.121296085,0.18757395,0.9107097,0.36213472,-0.17247209,-0.06286298,0.29145968,-0.06759494,-0.5224485,-0.5151813,-0.11645321,825.2015,803.8461,807.8755,832.8571,1224.5055,-0.2694091796875,-0.0079345703125,0.98126220703125,5.96649169921875,0.545806884765625,1.682281494140625,1,1.0,1.0,1.0,1.0,50.00
2022-11-23 20:26:01.363,0.6940635,-0.12282982,0.119349875,0.7797171,0.67090034,0.3795762,0.28308403,0.81208545,0.7111038,0.121296085,0.18757395,0.9107097,0.36213472,-0.17247209,-0.06286298,0.29145968,-0.06759494,-0.5224485,-0.5151813,-0.11645321,792.5641,802.23444,809.0842,808.68134,1023.0403,-0.2694091796875,-0.0079345703125,0.98126220703125,5.96649169921875,0.545806884765625,1.682281494140625,1,1.0,1.0,1.0,1.0,50.00
2022-11-23 20:26:01.363,0.6940635,-0.12282982,0.119349875,0.7797171,0.67090034,0.3795762,0.28308403,0.81208545,0.7111038,0.121296085,0.18757395,0.9107097,0.36213472,-0.17247209,-0.06286298,0.29145968,-0.06759494,-0.5224485,-0.5151813,-0.11645321,765.16486,804.65204,805.05493,782.49084,571.75824,-0.2694091796875,-0.0079345703125,0.98126220703125,5.96649169921875,0.545806884765625,1.682281494140625,1,1.0,1.0,1.0,1.0,50.00
2022-11-23 20:26:01.363,0.6940635,-0.12282982,0.119349875,0.7797171,0.67090034,0.3795762,0.28308403,0.81208545,0.7111038,0.121296085,0.18757395,0.9107097,0.36213472,-0.17247209,-0.06286298,0.29145968,-0.06759494,-0.5224485,-0.5151813,-0.11645321,790.9524,808.2784,800.2198,799.81683,663.6264,-0.2694091796875,-0.0079345703125,0.98126220703125,5.96649169921875,0.545806884765625,1.682281494140625,1,1.0,1.0,1.0,1.0,50.00
2022-11-23 20:26:01.364,0.6940635,-0.12282982,0.119349875,0.7797171,0.67090034,0.3795762,0.28308403,0.81208545,0.7111038,0.121296085,0.18757395,0.9107097,0.36213472,-0.17247209,-0.06286298,0.29145968,-0.06759494,-0.5224485,-0.5151813,-0.11645321,823.1868,809.0842,800.6227,819.15753,873.1502,-0.2694091796875,-0.0079345703125,0.98126220703125,5.96649169921875,0.545806884765625,1.682281494140625,1,1.0,1.0,1.0,1.0,50.00
2022-11-23 20:26:01.408,0.6940635,-0.12282982,0.119349875,0.7797171,0.67090034,0.3795762,0.28308403,0.81208545,0.7111038,0.121296085,0.18757395,0.9107097,0.36213472,-0.17247209,-0.06286298,0.29145968,-0.06759494,-0.5224485,-0.5151813,-0.11645321,800.2198,802.6374,803.0403,803.44324,791.3553,-0.2830810546875,0.00506591796875,0.9886474609375,6.512298583984375,0.710296630859375,1.57012939453125,1,1.0,1.0,1.0,1.0,50.00
2022-11-23 20:26:01.409,0.6940635,-0.12282982,0.119349875,0.7797171,0.67090034,0.3795762,0.28308403,0.81208545,0.7111038,0.121296085,0.18757395,0.9107097,0.36213472,-0.17247209,-0.06286298,0.29145968,-0.06759494,-0.5224485,-0.5151813,-0.11645321,767.1795,801.4286,802.6374,785.7143,624.5421,-0.2830810546875,0.00506591796875,0.9886474609375,6.512298583984375,0.710296630859375,1.57012939453125,1,1.0,1.0,1.0,1.0,50.00
2022-11-23 20:26:01.409,0.6940635,-0.12282982,0.119349875,0.7797171,0.67090034,0.3795762,0.28308403,0.81208545,0.7111038,0.121296085,0.18757395,0.9107097,0.36213472,-0.17247209,-0.06286298,0.29145968,-0.06759494,-0.5224485,-0.5151813,-0.11645321,778.46155,804.65204,804.65204,796.99634,702.3077,-0.2830810546875,0.00506591796875,0.9886474609375,6.512298583984375,0.710296630859375,1.57012939453125,1,1.0,1.0,1.0,1.0,50.00
2022-11-23 20:26:01.409,0.6940635,-0.12282982,0.119349875,0.7797171,0.67090034,0.3795762,0.28308403,0.81208545,0.7111038,0.121296085,0.18757395,0.9107097,0.36213472,-0.17247209,-0.06286298,0.29145968,-0.06759494,-0.5224485,-0.5151813,-0.11645321,814.3223,801.8315,810.293,821.5751,882.8205,-0.2830810546875,0.00506591796875,0.9886474609375,6.512298583984375,0.710296630859375,1.57012939453125,1,1.0,1.0,1.0,1.0,50.00
2022-11-23 20:26:01.410,0.6940635,-0.12282982,0.119349875,0.7797171,0.67090034,0.3795762,0.28308403,0.81208545,0.7111038,0.121296085,0.18757395,0.9107097,0.36213472,-0.17247209,-0.06286298,0.29145968,-0.06759494,-0.5224485,-0.5151813,-0.11645321,807.0696,801.8315,805.8608,806.26373,863.47986,-0.2830810546875,0.00506591796875,0.9886474609375,6.512298583984375,0.710296630859375,1.57012939453125,1,1.0,1.0,1.0,1.0,50.00
2022-11-23 20:26:01.410,0.72475535,-0.1360611,0.19624674,0.7952201,0.70822865,0.43976757,0.3575079,0.85102755,0.7111038,0.121296085,0.20203167,0.9107097,0.38564467,-0.15638506,-0.08253209,0.30653304,-0.08177448,-0.50299937,-0.5190838,-0.129887,771.6117,805.05493,800.2198,778.86444,728.9011,-0.2830810546875,0.00506591796875,0.9886474609375,6.512298583984375,0.710296630859375,1.57012939453125,1,1.0,1.0,1.0,1.0,50.00
2022-11-23 20:26:01.411,0.72475535,-0.1360611,0.19624674,0.7952201,0.70822865,0.43976757,0.3575079,0.85102755,0.7111038,0.121296085,0.20203167,0.9107097,0.38564467,-0.15638506,-0.08253209,0.30653304,-0.08177448,-0.50299937,-0.5190838,-0.129887,772.4176,806.6667,805.05493,794.9817,875.9707,-0.2830810546875,0.00506591796875,0.9886474609375,6.512298583984375,0.710296630859375,1.57012939453125,1,1.0,1.0,1.0,1.0,50.00
2022-11-23 20:26:01.412,0.72475535,-0.1360611,0.19624674,0.7952201,0.70822865,0.43976757,0.3575079,0.85102755,0.7111038,0.121296085,0.20203167,0.9107097,0.38564467,-0.15638506,-0.08253209,0.30653304,-0.08177448,-0.50299937,-0.5190838,-0.129887,807.47253,801.4286,805.05493,825.6044,1057.6923,-0.2830810546875,0.00506591796875,0.9886474609375,6.512298583984375,0.710296630859375,1.57012939453125,1,1.0,1.0,1.0,1.0,50.00
2022-11-23 20:26:01.412,0.72475535,-0.1360611,0.19624674,0.7952201,0.70822865,0.43976757,0.3575079,0.85102755,0.7111038,0.121296085,0.20203167,0.9107097,0.38564467,-0.15638506,-0.08253209,0.30653304,-0.08177448,-0.50299937,-0.5190838,-0.129887,824.7985,796.5934,801.8315,817.1429,890.87915,-0.2830810546875,0.00506591796875,0.9886474609375,6.512298583984375,0.710296630859375,1.57012939453125,1,1.0,1.0,1.0,1.0,50.00
2022-11-23 20:26:01.412,0.72475535,-0.1360611,0.19624674,0.7952201,0.70822865,0.43976757,0.3575079,0.85102755,0.7111038,0.121296085,0.20203167,0.9107097,0.38564467,-0.15638506,-0.08253209,0.30653304,-0.08177448,-0.50299937,-0.5190838,-0.129887,788.93774,799.011,803.44324,784.10254,662.4176,-0.2830810546875,0.00506591796875,0.9886474609375,6.512298583984375,0.710296630859375,1.57012939453125,1,1.0,1.0,1.0,1.0,50.00
2022-11-23 20:26:01.412,0.72475535,-0.1360611,0.19624674,0.7952201,0.70822865,0.43976757,0.3575079,0.85102755,0.7111038,0.121296085,0.20203167,0.9107097,0.38564467,-0.15638506,-0.08253209,0.30653304,-0.08177448,-0.50299937,-0.5190838,-0.129887,767.5824,796.99634,802.6374,776.8498,635.0183,-0.2830810546875,0.00506591796875,0.9886474609375,6.512298583984375,0.710296630859375,1.57012939453125,1,1.0,1.0,1.0,1.0,50.00
2022-11-23 20:26:01.413,0.72475535,-0.1360611,0.19624674,0.7952201,0.70822865,0.43976757,0.3575079,0.85102755,0.7111038,0.121296085,0.20203167,0.9107097,0.38564467,-0.15638506,-0.08253209,0.30653304,-0.08177448,-0.50299937,-0.5190838,-0.129887,799.011,793.36993,802.23444,805.4579,775.2381,-0.2830810546875,0.00506591796875,0.9886474609375,6.512298583984375,0.710296630859375,1.57012939453125,1,1.0,1.0,1.0,1.0,50.00
2022-11-23 20:26:01.460,0.72475535,-0.1360611,0.19624674,0.7952201,0.70822865,0.43976757,0.3575079,0.85102755,0.7111038,0.121296085,0.20203167,0.9107097,0.38564467,-0.15638506,-0.08253209,0.30653304,-0.08177448,-0.50299937,-0.5190838,-0.129887,823.1868,796.1905,802.6374,819.15753,831.6484,-0.26971435546875,-0.0015869140625,0.978759765625,4.299163818359375,0.6280517578125,0.336456298828125,1,1.0,1.0,1.0,1.0,50.00
2022-11-23 20:26:01.461,0.72475535,-0.1360611,0.19624674,0.7952201,0.70822865,0.43976757,0.3575079,0.85102755,0.7111038,0.121296085,0.20203167,0.9107097,0.38564467,-0.15638506,-0.08253209,0.30653304,-0.08177448,-0.50299937,-0.5190838,-0.129887,796.5934,798.60803,801.8315,796.1905,799.81683,-0.26971435546875,-0.0015869140625,0.978759765625,4.299163818359375,0.6280517578125,0.336456298828125,1,1.0,1.0,1.0,1.0,50.00
2022-11-23 20:26:01.461,0.72475535,-0.1360611,0.19624674,0.7952201,0.70822865,0.43976757,0.3575079,0.85102755,0.7111038,0.121296085,0.20203167,0.9107097,0.38564467,-0.15638506,-0.08253209,0.30653304,-0.08177448,-0.50299937,-0.5190838,-0.129887,765.16486,793.36993,797.8022,775.2381,698.2784,-0.26971435546875,-0.0015869140625,0.978759765625,4.299163818359375,0.6280517578125,0.336456298828125,1,1.0,1.0,1.0,1.0,50.00
2022-11-23 20:26:01.461,0.72475535,-0.1360611,0.19624674,0.7952201,0.70822865,0.43976757,0.3575079,0.85102755,0.7111038,0.121296085,0.20203167,0.9107097,0.38564467,-0.15638506,-0.08253209,0.30653304,-0.08177448,-0.50299937,-0.5190838,-0.129887,789.34064,791.75824,800.2198,792.96704,695.05493,-0.26971435546875,-0.0015869140625,0.978759765625,4.299163818359375,0.6280517578125,0.336456298828125,1,1.0,1.0,1.0,1.0,50.00
2022-11-23 20:26:01.461,0.72475535,-0.1360611,0.19624674,0.7952201,0.70822865,0.43976757,0.3575079,0.85102755,0.7111038,0.121296085,0.20203167,0.9107097,0.38564467,-0.15638506,-0.08253209,0.30653304,-0.08177448,-0.50299937,-0.5190838,-0.129887,832.0513,801.02563,804.65204,822.7839,789.34064,-0.26971435546875,-0.0015869140625,0.978759765625,4.299163818359375,0.6280517578125,0.336456298828125,1,1.0,1.0,1.0,1.0,50.00
2022-11-23 20:26:01.461,0.72475535,-0.1360611,0.19624674,0.7952201,0.70822865,0.43976757,0.3575079,0.85102755,0.7111038,0.121296085,0.20203167,0.9107097,0.38564467,-0.15638506,-0.08253209,0.30653304,-0.08177448,-0.50299937,-0.5190838,-0.129887,819.15753,800.6227,797.8022,807.47253,915.05493,-0.26971435546875,-0.0015869140625,0.978759765625,4.299163818359375,0.6280517578125,0.336456298828125,1,1.0,1.0,1.0,1.0,50.00
2022-11-23 20:26:01.462,0.72475535,-0.1360611,0.19624674,0.7952201,0.70822865,0.43976757,0.3575079,0.85102755,0.7111038,0.121296085,0.20203167,0.9107097,0.38564467,-0.15638506,-0.08253209,0.30653304,-0.08177448,-0.50299937,-0.5190838,-0.129887,783.69965,800.2198,801.4286,786.52014,921.9048,-0.26971435546875,-0.0015869140625,0.978759765625,4.299163818359375,0.6280517578125,0.336456298828125,1,1.0,1.0,1.0,1.0,50.00
2022-11-23 20:26:01.462,0.72475535,-0.1360611,0.19624674,0.7952201,0.70822865,0.43976757,0.3575079,0.85102755,0.7111038,0.121296085,0.20203167,0.9107097,0.38564467,-0.15638506,-0.08253209,0.30653304,-0.08177448,-0.50299937,-0.5190838,-0.129887,795.78754,804.2491,810.293,800.2198,769.19415,-0.26971435546875,-0.0015869140625,0.978759765625,4.299163818359375,0.6280517578125,0.336456298828125,1,1.0,1.0,1.0,1.0,50.00
2022-11-23 20:26:01.462,0.72475535,-0.1360611,0.19624674,0.7952201,0.70822865,0.43976757,0.3575079,0.85102755,0.7111038,0.121296085,0.20203167,0.9107097,0.38564467,-0.15638506,-0.08253209,0.30653304,-0.08177448,-0.50299937,-0.5190838,-0.129887,828.022,803.44324,807.8755,817.1429,763.1502,-0.26971435546875,-0.0015869140625,0.978759765625,4.299163818359375,0.6280517578125,0.336456298828125,1,1.0,1.0,1.0,1.0,50.00
2022-11-23 20:26:01.462,0.72475535,-0.1360611,0.19624674,0.7952201,0.70822865,0.43976757,0.3575079,0.85102755,0.7111038,0.121296085,0.20203167,0.9107097,0.38564467,-0.15638506,-0.08253209,0.30653304,-0.08177448,-0.50299937,-0.5190838,-0.129887,833.663,803.8461,811.0989,815.9341,881.2088,-0.26971435546875,-0.0015869140625,0.978759765625,4.299163818359375,0.6280517578125,0.336456298828125,1,1.0,1.0,1.0,1.0,50.00
2022-11-23 20:26:01.463,0.72475535,-0.1360611,0.19624674,0.7952201,0.70822865,0.43976757,0.3575079,0.85102755,0.7111038,0.121296085,0.20203167,0.9107097,0.38564467,-0.15638506,-0.08253209,0.30653304,-0.08177448,-0.50299937,-0.5190838,-0.129887,795.38464,803.44324,811.9048,794.9817,791.3553,-0.26971435546875,-0.0015869140625,0.978759765625,4.299163818359375,0.6280517578125,0.336456298828125,1,1.0,1.0,1.0,1.0,50.00
2022-11-23 20:26:01.463,0.72475535,-0.1360611,0.19624674,0.7952201,0.70822865,0.43976757,0.3575079,0.85102755,0.7111038,0.121296085,0.20203167,0.9107097,0.38564467,-0.15638506,-0.08253209,0.30653304,-0.08177448,-0.50299937,-0.5190838,-0.129887,781.28204,806.26373,808.2784,792.5641,638.24176,-0.26971435546875,-0.0015869140625,0.978759765625,4.299163818359375,0.6280517578125,0.336456298828125,1,1.0,1.0,1.0,1.0,50.00
2022-11-23 20:26:01.510,0.72475535,-0.1360611,0.19624674,0.7952201,0.70822865,0.43976757,0.3575079,0.85102755,0.7111038,0.121296085,0.20203167,0.9107097,0.38564467,-0.15638506,-0.08253209,0.30653304,-0.08177448,-0.50299937,-0.5190838,-0.129887,826.4103,808.68134,809.0842,819.15753,785.7143,-0.26873779296875,-0.0013427734375,0.98828125,3.312225341796875,-1.128997802734375,0.231781005859375,1,1.0,1.0,1.0,1.0,50.00
2022-11-23 20:26:01.510,0.72475535,-0.1360611,0.19624674,0.7952201,0.70822865,0.43976757,0.3575079,0.85102755,0.7111038,0.121296085,0.20203167,0.9107097,0.38564467,-0.15638506,-0.08253209,0.30653304,-0.08177448,-0.50299937,-0.5190838,-0.129887,838.0952,806.26373,807.0696,826.4103,998.86444,-0.26873779296875,-0.0013427734375,0.98828125,3.312225341796875,-1.128997802734375,0.231781005859375,1,1.0,1.0,1.0,1.0,50.00
2022-11-23 20:26:01.511,0.72475535,-0.1360611,0.19624674,0.7952201,0.70822865,0.43976757,0.3575079,0.85102755,0.7111038,0.121296085,0.20203167,0.9107097,0.38564467,-0.15638506,-0.08253209,0.30653304,-0.08177448,-0.50299937,-0.5190838,-0.129887,801.4286,807.8755,803.0403,812.3077,884.43225,-0.26873779296875,-0.0013427734375,0.98828125,3.312225341796875,-1.128997802734375,0.231781005859375,1,1.0,1.0,1.0,1.0,50.00
2022-11-23 20:26:01.511,0.72475535,-0.1360611,0.19624674,0.7952201,0.70822865,0.43976757,0.3575079,0.85102755,0.7111038,0.121296085,0.20203167,0.9107097,0.38564467,-0.15638506,-0.08253209,0.30653304,-0.08177448,-0.50299937,-0.5190838,-0.129887,782.8938,810.696,805.05493,796.1905,624.5421,-0.26873779296875,-0.0013427734375,0.98828125,3.312225341796875,-1.128997802734375,0.231781005859375,1,1.0,1.0,1.0,1.0,50.00
2022-11-23 20:26:01.511,0.72475535,-0.1360611,0.19624674,0.7952201,0.70822865,0.43976757,0.3575079,0.85102755,0.7111038,0.121296085,0.20203167,0.9107097,0.38564467,-0.15638506,-0.08253209,0.30653304,-0.08177448,-0.50299937,-0.5190838,-0.129887,808.2784,808.68134,805.4579,809.0842,731.31866,-0.26873779296875,-0.0013427734375,0.98828125,3.312225341796875,-1.128997802734375,0.231781005859375,1,1.0,1.0,1.0,1.0,50.00
2022-11-23 20:26:01.511,0.72475535,-0.1360611,0.19624674,0.7952201,0.70822865,0.43976757,0.3575079,0.85102755,0.7111038,0.121296085,0.20203167,0.9107097,0.38564467,-0.15638506,-0.08253209,0.30653304,-0.08177448,-0.50299937,-0.5190838,-0.129887,827.619,808.2784,802.23444,823.5897,957.76556,-0.26873779296875,-0.0013427734375,0.98828125,3.312225341796875,-1.128997802734375,0.231781005859375,1,1.0,1.0,1.0,1.0,50.00
2022-11-23 20:26:01.512,0.72475535,-0.1360611,0.19624674,0.7952201,0.70822865,0.43976757,0.3575079,0.85102755,0.7111038,0.121296085,0.20203167,0.9107097,0.38564467,-0.15638506,-0.08253209,0.30653304,-0.08177448,-0.50299937,-0.5190838,-0.129887,804.2491,810.696,802.23444,802.23444,898.93774,-0.26873779296875,-0.0013427734375,0.98828125,3.312225341796875,-1.128997802734375,0.231781005859375,1,1.0,1.0,1.0,1.0,50.00
2022-11-23 20:26:01.512,0.7594036,-0.15066497,0.24977292,0.82423216,0.74795324,0.4782431,0.40547925,0.8939536,0.7111038,0.121296085,0.20358248,0.91054744,0.40523216,-0.14087771,-0.10009149,0.31609508,-0.104931355,-0.48455578,-0.5196446,-0.14084099,778.0586,812.71063,807.8755,787.326,661.2088,-0.26873779296875,-0.0013427734375,0.98828125,3.312225341796875,-1.128997802734375,0.231781005859375,1,1.0,1.0,1.0,1.0,50.00
2022-11-23 20:26:01.513,0.7594036,-0.15066497,0.24977292,0.82423216,0.74795324,0.4782431,0.40547925,0.8939536,0.7111038,0.121296085,0.20358248,0.91054744,0.40523216,-0.14087771,-0.10009149,0.31609508,-0.104931355,-0.48455578,-0.5196446,-0.14084099,791.3553,814.3223,809.89014,799.41394,624.94507,-0.26873779296875,-0.0013427734375,0.98828125,3.312225341796875,-1.128997802734375,0.231781005859375,1,1.0,1.0,1.0,1.0,50.00
2022-11-23 20:26:01.513,0.7594036,-0.15066497,0.24977292,0.82423216,0.74795324,0.4782431,0.40547925,0.8939536,0.7111038,0.121296085,0.20358248,0.91054744,0.40523216,-0.14087771,-0.10009149,0.31609508,-0.104931355,-0.48455578,-0.5196446,-0.14084099,836.08057,819.15753,809.0842,825.2015,988.3883,-0.26873779296875,-0.0013427734375,0.98828125,3.312225341796875,-1.128997802734375,0.231781005859375,1,1.0,1.0,1.0,1.0,50.00
2022-11-23 20:26:01.513,0.7594036,-0.15066497,0.24977292,0.82423216,0.74795324,0.4782431,0.40547925,0.8939536,0.7111038,0.121296085,0.20358248,0.91054744,0.40523216,-0.14087771,-0.10009149,0.31609508,-0.104931355,-0.48455578,-0.5196446,-0.14084099,828.8278,819.15753,811.50183,824.7985,1069.3773,-0.26873779296875,-0.0013427734375,0.98828125,3.312225341796875,-1.128997802734375,0.231781005859375,1,1.0,1.0,1.0,1.0,50.00
2022-11-23 20:26:01.514,0.7594036,-0.15066497,0.24977292,0.82423216,0.74795324,0.4782431,0.40547925,0.8939536,0.7111038,0.121296085,0.20358248,0.91054744,0.40523216,-0.14087771,-0.10009149,0.31609508,-0.104931355,-0.48455578,-0.5196446,-0.14084099,787.326,817.9487,809.0842,796.99634,693.44324,-0.26873779296875,-0.0013427734375,0.98828125,3.312225341796875,-1.128997802734375,0.231781005859375,1,1.0,1.0,1.0,1.0,50.00
2022-11-23 20:26:01.561,0.7594036,-0.15066497,0.24977292,0.82423216,0.74795324,0.4782431,0.40547925,0.8939536,0.7111038,0.121296085,0.20358248,0.91054744,0.40523216,-0.14087771,-0.10009149,0.31609508,-0.104931355,-0.48455578,-0.5196446,-0.14084099,789.34064,818.3516,805.4579,796.5934,626.9597,-0.26873779296875,-0.0013427734375,0.98828125,3.312225341796875,-1.128997802734375,0.231781005859375,1,1.0,1.0,1.0,1.0,50.00
2022-11-23 20:26:01.561,0.7594036,-0.15066497,0.24977292,0.82423216,0.74795324,0.4782431,0.40547925,0.8939536,0.7111038,0.121296085,0.20358248,0.91054744,0.40523216,-0.14087771,-0.10009149,0.31609508,-0.104931355,-0.48455578,-0.5196446,-0.14084099,826.0073,815.9341,806.6667,820.3663,822.381,-0.26873779296875,-0.0013427734375,0.98828125,3.312225341796875,-1.128997802734375,0.231781005859375,1,1.0,1.0,1.0,1.0,50.00
2022-11-23 20:26:01.561,0.7594036,-0.15066497,0.24977292,0.82423216,0.74795324,0.4782431,0.40547925,0.8939536,0.7111038,0.121296085,0.20358248,0.91054744,0.40523216,-0.14087771,-0.10009149,0.31609508,-0.104931355,-0.48455578,-0.5196446,-0.14084099,835.6777,814.7253,809.89014,823.5897,944.4689,-0.26873779296875,-0.0013427734375,0.98828125,3.312225341796875,-1.128997802734375,0.231781005859375,1,1.0,1.0,1.0,1.0,50.00
2022-11-23 20:26:01.562,0.7594036,-0.15066497,0.24977292,0.82423216,0.74795324,0.4782431,0.40547925,0.8939536,0.7111038,0.121296085,0.20358248,0.91054744,0.40523216,-0.14087771,-0.10009149,0.31609508,-0.104931355,-0.48455578,-0.5196446,-0.14084099,795.78754,812.71063,813.1135,795.78754,739.7802,-0.26873779296875,-0.0013427734375,0.98828125,3.312225341796875,-1.128997802734375,0.231781005859375,1,1.0,1.0,1.0,1.0,50.00
2022-11-23 20:26:01.562,0.7594036,-0.15066497,0.24977292,0.82423216,0.74795324,0.4782431,0.40547925,0.8939536,0.7111038,0.121296085,0.20358248,0.91054744,0.40523216,-0.14087771,-0.10009149,0.31609508,-0.104931355,-0.48455578,-0.5196446,-0.14084099,779.67035,809.89014,813.5165,788.93774,638.24176,-0.26873779296875,-0.0013427734375,0.98828125,3.312225341796875,-1.128997802734375,0.231781005859375,1,1.0,1.0,1.0,1.0,50.00
2022-11-23 20:26:01.562,0.7594036,-0.15066497,0.24977292,0.82423216,0.74795324,0.4782431,0.40547925,0.8939536,0.7111038,0.121296085,0.20358248,0.91054744,0.40523216,-0.14087771,-0.10009149,0.31609508,-0.104931355,-0.48455578,-0.5196446,-0.14084099,814.3223,809.0842,808.2784,812.71063,981.53845,-0.26873779296875,-0.0013427734375,0.98828125,3.312225341796875,-1.128997802734375,0.231781005859375,1,1.0,1.0,1.0,1.0,50.00
2022-11-23 20:26:01.562,0.7594036,-0.15066497,0.24977292,0.82423216,0.74795324,0.4782431,0.40547925,0.8939536,0.7111038,0.121296085,0.20358248,0.91054744,0.40523216,-0.14087771,-0.10009149,0.31609508,-0.104931355,-0.48455578,-0.5196446,-0.14084099,828.022,805.8608,802.23444,815.5311,1151.978,-0.26873779296875,-0.0013427734375,0.98828125,3.312225341796875,-1.128997802734375,0.231781005859375,1,1.0,1.0,1.0,1.0,50.00
2022-11-23 20:26:01.563,0.7594036,-0.15066497,0.24977292,0.82423216,0.74795324,0.4782431,0.40547925,0.8939536,0.7111038,0.121296085,0.20358248,0.91054744,0.40523216,-0.14087771,-0.10009149,0.31609508,-0.104931355,-0.48455578,-0.5196446,-0.14084099,790.9524,799.81683,800.6227,792.1612,907.8022,-0.26873779296875,-0.0013427734375,0.98828125,3.312225341796875,-1.128997802734375,0.231781005859375,1,1.0,1.0,1.0,1.0,50.00
2022-11-23 20:26:01.563,0.7594036,-0.15066497,0.24977292,0.82423216,0.74795324,0.4782431,0.40547925,0.8939536,0.7111038,0.121296085,0.20358248,0.91054744,0.40523216,-0.14087771,-0.10009149,0.31609508,-0.104931355,-0.48455578,-0.5196446,-0.14084099,772.01465,802.23444,798.20514,779.67035,756.7033,-0.26873779296875,-0.0013427734375,0.98828125,3.312225341796875,-1.128997802734375,0.231781005859375,1,1.0,1.0,1.0,1.0,50.00
2022-11-23 20:26:01.563,0.7594036,-0.15066497,0.24977292,0.82423216,0.74795324,0.4782431,0.40547925,0.8939536,0.7111038,0.121296085,0.20358248,0.91054744,0.40523216,-0.14087771,-0.10009149,0.31609508,-0.104931355,-0.48455578,-0.5196446,-0.14084099,801.4286,804.2491,797.3993,798.20514,879.59705,-0.26873779296875,-0.0013427734375,0.98828125,3.312225341796875,-1.128997802734375,0.231781005859375,1,1.0,1.0,1.0,1.0,50.00
2022-11-23 20:26:01.563,0.7594036,-0.15066497,0.24977292,0.82423216,0.74795324,0.4782431,0.40547925,0.8939536,0.7111038,0.121296085,0.20358248,0.91054744,0.40523216,-0.14087771,-0.10009149,0.31609508,-0.104931355,-0.48455578,-0.5196446,-0.14084099,832.4542,804.2491,801.02563,819.15753,869.12085,-0.26873779296875,-0.0013427734375,0.98828125,3.312225341796875,-1.128997802734375,0.231781005859375,1,1.0,1.0,1.0,1.0,50.00
2022-11-23 20:26:01.564,0.7594036,-0.15066497,0.24977292,0.82423216,0.74795324,0.4782431,0.40547925,0.8939536,0.7111038,0.121296085,0.20358248,0.91054744,0.40523216,-0.14087771,-0.10009149,0.31609508,-0.104931355,-0.48455578,-0.5196446,-0.14084099,808.68134,805.4579,801.02563,798.60803,734.94507,-0.26873779296875,-0.0013427734375,0.98828125,3.312225341796875,-1.128997802734375,0.231781005859375,1,1.0,1.0,1.0,1.0,50.00
2022-11-23 20:26:01.586,0.7594036,-0.15066497,0.24977292,0.82423216,0.74795324,0.4782431,0.40547925,0.8939536,0.7111038,0.121296085,0.20358248,0.91054744,0.40523216,-0.14087771,-0.10009149,0.31609508,-0.104931355,-0.48455578,-0.5196446,-0.14084099,773.6264,803.44324,796.99634,780.87915,639.85345,-0.26422119140625,-0.004150390625,0.980224609375,2.9010009765625,-1.83929443359375,-0.127105712890625,1,1.0,1.0,1.0,1.0,50.00
2022-11-23 20:26:01.586,0.7594036,-0.15066497,0.24977292,0.82423216,0.74795324,0.4782431,0.40547925,0.8939536,0.7111038,0.121296085,0.20358248,0.91054744,0.40523216,-0.14087771,-0.10009149,0.31609508,-0.104931355,-0.48455578,-0.5196446,-0.14084099,791.75824,801.8315,794.57874,790.54944,725.6777,-0.26422119140625,-0.004150390625,0.980224609375,2.9010009765625,-1.83929443359375,-0.127105712890625,1,1.0,1.0,1.0,1.0,50.00
2022-11-23 20:26:01.587,0.7594036,-0.15066497,0.24977292,0.82423216,0.74795324,0.4782431,0.40547925,0.8939536,0.7111038,0.121296085,0.20358248,0.91054744,0.40523216,-0.14087771,-0.10009149,0.31609508,-0.104931355,-0.48455578,-0.5196446,-0.14084099,824.3956,803.0403,796.5934,805.8608,896.9231,-0.26422119140625,-0.004150390625,0.980224609375,2.9010009765625,-1.83929443359375,-0.127105712890625,1,1.0,1.0,1.0,1.0,50.00
2022-11-23 20:26:01.587,0.7594036,-0.15066497,0.24977292,0.82423216,0.74795324,0.4782431,0.40547925,0.8939536,0.7111038,0.121296085,0.20358248,0.91054744,0.40523216,-0.14087771,-0.10009149,0.31609508,-0.104931355,-0.48455578,-0.5196446,-0.14084099,819.9634,803.0403,800.6227,802.23444,858.24176,-0.26422119140625,-0.004150390625,0.980224609375,2.9010009765625,-1.83929443359375,-0.127105712890625,1,1.0,1.0,1.0,1.0,50.00
2022-11-23 20:26:01.587,0.7594036,-0.15066497,0.24977292,0.82423216,0.74795324,0.4782431,0.40547925,0.8939536,0.7111038,0.121296085,0.20358248,0.91054744,0.40523216,-0.14087771,-0.10009149,0.31609508,-0.104931355,-0.48455578,-0.5196446,-0.14084099,777.6557,801.4286,798.60803,771.2088,692.6374,-0.26422119140625,-0.004150390625,0.980224609375,2.9010009765625,-1.83929443359375,-0.127105712890625,1,1.0,1.0,1.0,1.0,50.00
2022-11-23 20:26:01.587,0.7594036,-0.15066497,0.24977292,0.82423216,0.74795324,0.4782431,0.40547925,0.8939536,0.7111038,0.121296085,0.20358248,0.91054744,0.40523216,-0.14087771,-0.10009149,0.31609508,-0.104931355,-0.48455578,-0.5196446,-0.14084099,769.19415,801.02563,794.9817,771.2088,693.8461,-0.26422119140625,-0.004150390625,0.980224609375,2.9010009765625,-1.83929443359375,-0.127105712890625,1,1.0,1.0,1.0,1.0,50.00
2022-11-23 20:26:01.588,0.7594036,-0.15066497,0.24977292,0.82423216,0.74795324,0.4782431,0.40547925,0.8939536,0.7111038,0.121296085,0.20358248,0.91054744,0.40523216,-0.14087771,-0.10009149,0.31609508,-0.104931355,-0.48455578,-0.5196446,-0.14084099,809.89014,800.6227,794.9817,799.011,897.326,-0.26422119140625,-0.004150390625,0.980224609375,2.9010009765625,-1.83929443359375,-0.127105712890625,1,1.0,1.0,1.0,1.0,50.00
2022-11-23 20:26:01.588,0.7594036,-0.15066497,0.24977292,0.82423216,0.74795324,0.4782431,0.40547925,0.8939536,0.7111038,0.121296085,0.20358248,0.91054744,0.40523216,-0.14087771,-0.10009149,0.31609508,-0.104931355,-0.48455578,-0.5196446,-0.14084099,817.5458,800.2198,793.7729,792.5641,893.69965,-0.26422119140625,-0.004150390625,0.980224609375,2.9010009765625,-1.83929443359375,-0.127105712890625,1,1.0,1.0,1.0,1.0,50.00
2022-11-23 20:26:01.588,0.7594036,-0.15066497,0.24977292,0.82423216,0.74795324,0.4782431,0.40547925,0.8939536,0.7111038,0.121296085,0.20358248,0.91054744,0.40523216,-0.14087771,-0.10009149,0.31609508,-0.104931355,-0.48455578,-0.5196446,-0.14084099,779.2674,797.3993,791.3553,772.01465,824.3956,-0.26422119140625,-0.004150390625,0.980224609375,2.9010009765625,-1.83929443359375,-0.127105712890625,1,1.0,1.0,1.0,1.0,50.00
2022-11-23 20:26:01.588,0.7821547,-0.1580253,0.2814481,0.84818125,0.778439,0.5039278,0.4364282,0.92566407,0.7111038,0.121296085,0.20358248,0.91037744,0.42477658,-0.12847358,-0.10647174,0.31804127,-0.12473712,-0.47367877,-0.51965564,-0.15437844,763.1502,797.8022,792.5641,774.43225,841.31866,-0.26422119140625,-0.004150390625,0.980224609375,2.9010009765625,-1.83929443359375,-0.127105712890625,1,1.0,1.0,1.0,1.0,50.00
2022-11-23 20:26:01.589,0.7821547,-0.1580253,0.2814481,0.84818125,0.778439,0.5039278,0.4364282,0.92566407,0.7111038,0.121296085,0.20358248,0.91037744,0.42477658,-0.12847358,-0.10647174,0.31804127,-0.12473712,-0.47367877,-0.51965564,-0.15437844,792.5641,801.4286,789.7436,791.75824,818.3516,-0.26422119140625,-0.004150390625,0.980224609375,2.9010009765625,-1.83929443359375,-0.127105712890625,1,1.0,1.0,1.0,1.0,50.00
2022-11-23 20:26:01.590,0.7821547,-0.1580253,0.2814481,0.84818125,0.778439,0.5039278,0.4364282,0.92566407,0.7111038,0.121296085,0.20358248,0.91037744,0.42477658,-0.12847358,-0.10647174,0.31804127,-0.12473712,-0.47367877,-0.51965564,-0.15437844,816.7399,803.0403,789.34064,800.6227,841.7216,-0.26422119140625,-0.004150390625,0.980224609375,2.9010009765625,-1.83929443359375,-0.127105712890625,1,1.0,1.0,1.0,1.0,50.00
2022-11-23 20:26:01.637,0.7821547,-0.1580253,0.2814481,0.84818125,0.778439,0.5039278,0.4364282,0.92566407,0.7111038,0.121296085,0.20358248,0.91037744,0.42477658,-0.12847358,-0.10647174,0.31804127,-0.12473712,-0.47367877,-0.51965564,-0.15437844,798.60803,807.0696,795.78754,784.5055,691.4286,-0.26171875,-0.00146484375,0.98712158203125,2.82623291015625,-2.071075439453125,0.11962890625,1,1.0,1.0,1.0,1.0,50.00
2022-11-23 20:26:01.637,0.7821547,-0.1580253,0.2814481,0.84818125,0.778439,0.5039278,0.4364282,0.92566407,0.7111038,0.121296085,0.20358248,0.91037744,0.42477658,-0.12847358,-0.10647174,0.31804127,-0.12473712,-0.47367877,-0.51965564,-0.15437844,768.7912,809.0842,797.8022,765.9707,593.1135,-0.26171875,-0.00146484375,0.98712158203125,2.82623291015625,-2.071075439453125,0.11962890625,1,1.0,1.0,1.0,1.0,50.00
2022-11-23 20:26:01.637,0.7821547,-0.1580253,0.2814481,0.84818125,0.778439,0.5039278,0.4364282,0.92566407,0.7111038,0.121296085,0.20358248,0.91037744,0.42477658,-0.12847358,-0.10647174,0.31804127,-0.12473712,-0.47367877,-0.51965564,-0.15437844,793.36993,805.4579,798.20514,780.87915,657.98535,-0.26171875,-0.00146484375,0.98712158203125,2.82623291015625,-2.071075439453125,0.11962890625,1,1.0,1.0,1.0,1.0,50.00
2022-11-23 20:26:01.638,0.7821547,-0.1580253,0.2814481,0.84818125,0.778439,0.5039278,0.4364282,0.92566407,0.7111038,0.121296085,0.20358248,0.91037744,0.42477658,-0.12847358,-0.10647174,0.31804127,-0.12473712,-0.47367877,-0.51965564,-0.15437844,830.0366,801.4286,796.1905,808.2784,796.99634,-0.26171875,-0.00146484375,0.98712158203125,2.82623291015625,-2.071075439453125,0.11962890625,1,1.0,1.0,1.0,1.0,50.00
2022-11-23 20:26:01.638,0.7821547,-0.1580253,0.2814481,0.84818125,0.778439,0.5039278,0.4364282,0.92566407,0.7111038,0.121296085,0.20358248,0.91037744,0.42477658,-0.12847358,-0.10647174,0.31804127,-0.12473712,-0.47367877,-0.51965564,-0.15437844,809.89014,800.6227,793.36993,792.5641,788.5348,-0.26171875,-0.00146484375,0.98712158203125,2.82623291015625,-2.071075439453125,0.11962890625,1,1.0,1.0,1.0,1.0,50.00
2022-11-23 20:26:01.638,0.7821547,-0.1580253,0.2814481,0.84818125,0.778439,0.5039278,0.4364282,0.92566407,0.7111038,0.121296085,0.20358248,0.91037744,0.42477658,-0.12847358,-0.10647174,0.31804127,-0.12473712,-0.47367877,-0.51965564,-0.15437844,780.4762,806.26373,796.99634,774.83514,722.4542,-0.26171875,-0.00146484375,0.98712158203125,2.82623291015625,-2.071075439453125,0.11962890625,1,1.0,1.0,1.0,1.0,50.00
2022-11-23 20:26:01.639,0.7821547,-0.1580253,0.2814481,0.84818125,0.778439,0.5039278,0.4364282,0.92566407,0.7111038,0.121296085,0.20358248,0.91037744,0.42477658,-0.12847358,-0.10647174,0.31804127,-0.12473712,-0.47367877,-0.51965564,-0.15437844,796.1905,805.8608,802.23444,798.60803,781.685,-0.26171875,-0.00146484375,0.98712158203125,2.82623291015625,-2.071075439453125,0.11962890625,1,1.0,1.0,1.0,1.0,50.00
2022-11-23 20:26:01.639,0.7821547,-0.1580253,0.2814481,0.84818125,0.778439,0.5039278,0.4364282,0.92566407,0.7111038,0.121296085,0.20358248,0.91037744,0.42477658,-0.12847358,-0.10647174,0.31804127,-0.12473712,-0.47367877,-0.51965564,-0.15437844,835.6777,804.65204,806.26373,821.5751,938.8278,-0.26171875,-0.00146484375,0.98712158203125,2.82623291015625,-2.071075439453125,0.11962890625,1,1.0,1.0,1.0,1.0,50.00
2022-11-23 20:26:01.639,0.7821547,-0.1580253,0.2814481,0.84818125,0.778439,0.5039278,0.4364282,0.92566407,0.7111038,0.121296085,0.20358248,0.91037744,0.42477658,-0.12847358,-0.10647174,0.31804127,-0.12473712,-0.47367877,-0.51965564,-0.15437844,833.2601,807.0696,805.8608,817.5458,1248.2784,-0.26171875,-0.00146484375,0.98712158203125,2.82623291015625,-2.071075439453125,0.11962890625,1,1.0,1.0,1.0,1.0,50.00
2022-11-23 20:26:01.639,0.7821547,-0.1580253,0.2814481,0.84818125,0.778439,0.5039278,0.4364282,0.92566407,0.7111038,0.121296085,0.20358248,0.91037744,0.42477658,-0.12847358,-0.10647174,0.31804127,-0.12473712,-0.47367877,-0.51965564,-0.15437844,798.60803,808.68134,807.47253,796.5934,1006.1172,-0.26171875,-0.00146484375,0.98712158203125,2.82623291015625,-2.071075439453125,0.11962890625,1,1.0,1.0,1.0,1.0,50.00
2022-11-23 20:26:01.640,0.7821547,-0.1580253,0.2814481,0.84818125,0.778439,0.5039278,0.4364282,0.92566407,0.7111038,0.121296085,0.20358248,0.91037744,0.42477658,-0.12847358,-0.10647174,0.31804127,-0.12473712,-0.47367877,-0.51965564,-0.15437844,799.81683,810.696,811.0989,799.011,655.56775,-0.26171875,-0.00146484375,0.98712158203125,2.82623291015625,-2.071075439453125,0.11962890625,1,1.0,1.0,1.0,1.0,50.00
2022-11-23 20:26:01.640,0.7821547,-0.1580253,0.2814481,0.84818125,0.778439,0.5039278,0.4364282,0.92566407,0.7111038,0.121296085,0.20358248,0.91037744,0.42477658,-0.12847358,-0.10647174,0.31804127,-0.12473712,-0.47367877,-0.51965564,-0.15437844,835.6777,812.71063,810.696,828.4249,788.5348,-0.26171875,-0.00146484375,0.98712158203125,2.82623291015625,-2.071075439453125,0.11962890625,1,1.0,1.0,1.0,1.0,50.00
2022-11-23 20:26:01.686,0.7821547,-0.1580253,0.2814481,0.84818125,0.778439,0.5039278,0.4364282,0.92566407,0.7111038,0.121296085,0.20358248,0.91037744,0.42477658,-0.12847358,-0.10647174,0.31804127,-0.12473712,-0.47367877,-0.51965564,-0.15437844,841.7216,808.68134,811.50183,826.4103,869.92676,-0.2607421875,0.0069580078125,0.98828125,3.21502685546875,-1.6748046875,1.39068603515625,1,1.0,1.0,1.0,1.0,50.00
2022-11-23 20:26:01.686,0.7821547,-0.1580253,0.2814481,0.84818125,0.778439,0.5039278,0.4364282,0.92566407,0.7111038,0.121296085,0.20358248,0.91037744,0.42477658,-0.12847358,-0.10647174,0.31804127,-0.12473712,-0.47367877,-0.51965564,-0.15437844,802.6374,805.05493,809.89014,799.41394,714.7985,-0.2607421875,0.0069580078125,0.98828125,3.21502685546875,-1.6748046875,1.39068603515625,1,1.0,1.0,1.0,1.0,50.00
2022-11-23 20:26:01.687,0.7821547,-0.1580253,0.2814481,0.84818125,0.778439,0.5039278,0.4364282,0.92566407,0.7111038,0.121296085,0.20358248,0.91037744,0.42477658,-0.12847358,-0.10647174,0.31804127,-0.12473712,-0.47367877,-0.51965564,-0.15437844,781.685,806.26373,804.2491,792.5641,573.36993,-0.2607421875,0.0069580078125,0.98828125,3.21502685546875,-1.6748046875,1.39068603515625,1,1.0,1.0,1.0,1.0,50.00
2022-11-23 20:26:01.687,0.7821547,-0.1580253,0.2814481,0.84818125,0.778439,0.5039278,0.4364282,0.92566407,0.7111038,0.121296085,0.20358248,0.91037744,0.42477658,-0.12847358,-0.10647174,0.31804127,-0.12473712,-0.47367877,-0.51965564,-0.15437844,820.7692,808.2784,801.8315,813.5165,695.05493,-0.2607421875,0.0069580078125,0.98828125,3.21502685546875,-1.6748046875,1.39068603515625,1,1.0,1.0,1.0,1.0,50.00
2022-11-23 20:26:01.687,0.7821547,-0.1580253,0.2814481,0.84818125,0.778439,0.5039278,0.4364282,0.92566407,0.7111038,0.121296085,0.20358248,0.91037744,0.42477658,-0.12847358,-0.10647174,0.31804127,-0.12473712,-0.47367877,-0.51965564,-0.15437844,847.76556,808.68134,805.4579,832.4542,870.7326,-0.2607421875,0.0069580078125,0.98828125,3.21502685546875,-1.6748046875,1.39068603515625,1,1.0,1.0,1.0,1.0,50.00
2022-11-23 20:26:01.687,0.7821547,-0.1580253,0.2814481,0.84818125,0.778439,0.5039278,0.4364282,0.92566407,0.7111038,0.121296085,0.20358248,0.91037744,0.42477658,-0.12847358,-0.10647174,0.31804127,-0.12473712,-0.47367877,-0.51965564,-0.15437844,813.5165,803.44324,803.0403,813.5165,780.4762,-0.2607421875,0.0069580078125,0.98828125,3.21502685546875,-1.6748046875,1.39068603515625,1,1.0,1.0,1.0,1.0,50.00
2022-11-23 20:26:01.688,0.7821547,-0.1580253,0.2814481,0.84818125,0.778439,0.5039278,0.4364282,0.92566407,0.7111038,0.121296085,0.20358248,0.91037744,0.42477658,-0.12847358,-0.10647174,0.31804127,-0.12473712,-0.47367877,-0.51965564,-0.15437844,785.31134,802.23444,796.1905,795.78754,653.5531,-0.2607421875,0.0069580078125,0.98828125,3.21502685546875,-1.6748046875,1.39068603515625,1,1.0,1.0,1.0,1.0,50.00
2022-11-23 20:26:01.688,0.7821547,-0.1580253,0.2814481,0.84818125,0.778439,0.5039278,0.4364282,0.92566407,0.7111038,0.121296085,0.20358248,0.91037744,0.42477658,-0.12847358,-0.10647174,0.31804127,-0.12473712,-0.47367877,-0.51965564,-0.15437844,807.47253,806.6667,799.41394,816.337,855.0183,-0.2607421875,0.0069580078125,0.98828125,3.21502685546875,-1.6748046875,1.39068603515625,1,1.0,1.0,1.0,1.0,50.00
2022-11-23 20:26:01.688,0.7821547,-0.1580253,0.2814481,0.84818125,0.778439,0.5039278,0.4364282,0.92566407,0.7111038,0.121296085,0.20358248,0.91037744,0.42477658,-0.12847358,-0.10647174,0.31804127,-0.12473712,-0.47367877,-0.51965564,-0.15437844,834.87177,808.2784,804.65204,837.6923,1062.5275,-0.2607421875,0.0069580078125,0.98828125,3.21502685546875,-1.6748046875,1.39068603515625,1,1.0,1.0,1.0,1.0,50.00
2022-11-23 20:26:01.688,0.7821547,-0.1580253,0.2814481,0.84818125,0.778439,0.5039278,0.4364282,0.92566407,0.7111038,0.121296085,0.20358248,0.91037744,0.42477658,-0.12847358,-0.10647174,0.31804127,-0.12473712,-0.47367877,-0.51965564,-0.15437844,818.3516,806.6667,802.6374,812.71063,837.28937,-0.2607421875,0.0069580078125,0.98828125,3.21502685546875,-1.6748046875,1.39068603515625,1,1.0,1.0,1.0,1.0,50.00
