TimeStamp,Delta_TP9,Delta_AF7,Delta_AF8,Delta_TP10,Theta_TP9,Theta_AF7,Theta_AF8,Theta_TP10,Alpha_TP9,Alpha_AF7,Alpha_AF8,Alpha_TP10,Beta_TP9,Beta_AF7,Beta_AF8,Beta_TP10,Gamma_TP9,Gamma_AF7,Gamma_AF8,Gamma_TP10,RAW_TP9,RAW_AF7,RAW_AF8,RAW_TP10,AUX_RIGHT,Accelerometer_X,Accelerometer_Y,Accelerometer_Z,Gyro_X,Gyro_Y,Gyro_Z,HeadBandOn,HSI_TP9,HSI_AF7,HSI_AF8,HSI_TP10,Battery,Elements
2022-11-23 20:25:28.706,1.1201079,0.07038186,0.07132675,1.0363306,0.49265498,0.106203854,-0.030584686,0.52581894,0.6374584,0.39759934,0.20244652,0.5731889,0.22212557,-0.18840992,-0.14528437,0.34126207,-0.05739366,-0.32022953,-0.584472,0.24799764,834.4689,809.89014,803.8461,819.15753,762.74725,-0.24810791015625,-0.00213623046875,0.9954833984375,3.09539794921875,-1.831817626953125,0.1495361328125,1,1.0,1.0,1.0,1.0,50.00
2022-11-23 20:25:28.707,1.1201079,0.07038186,0.07132675,1.0363306,0.49265498,0.106203854,-0.030584686,0.52581894,0.6374584,0.39759934,0.20244652,0.5731889,0.22212557,-0.18840992,-0.14528437,0.34126207,-0.05739366,-0.32022953,-0.584472,0.24799764,838.0952,809.4872,805.8608,821.978,795.78754,-0.24810791015625,-0.00213623046875,0.9954833984375,3.09539794921875,-1.831817626953125,0.1495361328125,1,1.0,1.0,1.0,1.0,50.00
2022-11-23 20:25:28.707,1.1201079,0.07038186,0.07132675,1.0363306,0.49265498,0.106203854,-0.030584686,0.52581894,0.6374584,0.39759934,0.20244652,0.5731889,0.22212557,-0.18840992,-0.14528437,0.34126207,-0.05739366,-0.32022953,-0.584472,0.24799764,796.1905,805.8608,805.05493,792.96704,696.6667,-0.24810791015625,-0.00213623046875,0.9954833984375,3.09539794921875,-1.831817626953125,0.1495361328125,1,1.0,1.0,1.0,1.0,50.00
2022-11-23 20:25:28.707,1.1201079,0.07038186,0.07132675,1.0363306,0.49265498,0.106203854,-0.030584686,0.52581894,0.6374584,0.39759934,0.20244652,0.5731889,0.22212557,-0.18840992,-0.14528437,0.34126207,-0.05739366,-0.32022953,-0.584472,0.24799764,784.10254,805.4579,804.65204,788.5348,601.5751,-0.24810791015625,-0.00213623046875,0.9954833984375,3.09539794921875,-1.831817626953125,0.1495361328125,1,1.0,1.0,1.0,1.0,50.00
2022-11-23 20:25:28.707,1.1201079,0.07038186,0.07132675,1.0363306,0.49265498,0.106203854,-0.030584686,0.52581894,0.6374584,0.39759934,0.20244652,0.5731889,0.22212557,-0.18840992,-0.14528437,0.34126207,-0.05739366,-0.32022953,-0.584472,0.24799764,830.4396,807.47253,800.2198,823.5897,729.707,-0.24810791015625,-0.00213623046875,0.9954833984375,3.09539794921875,-1.831817626953125,0.1495361328125,1,1.0,1.0,1.0,1.0,50.00
2022-11-23 20:25:28.708,1.1201079,0.07038186,0.07132675,1.0363306,0.49265498,0.106203854,-0.030584686,0.52581894,0.6374584,0.39759934,0.20244652,0.5731889,0.22212557,-0.18840992,-0.14528437,0.34126207,-0.05739366,-0.32022953,-0.584472,0.24799764,848.97437,804.2491,798.60803,828.8278,845.7509,-0.24810791015625,-0.00213623046875,0.9954833984375,3.09539794921875,-1.831817626953125,0.1495361328125,1,1.0,1.0,1.0,1.0,50.00
2022-11-23 20:25:28.708,1.1201079,0.07038186,0.07132675,1.0363306,0.49265498,0.106203854,-0.030584686,0.52581894,0.6374584,0.39759934,0.20244652,0.5731889,0.22212557,-0.18840992,-0.14528437,0.34126207,-0.05739366,-0.32022953,-0.584472,0.24799764,807.0696,805.4579,795.78754,805.4579,943.2601,-0.24810791015625,-0.00213623046875,0.9954833984375,3.09539794921875,-1.831817626953125,0.1495361328125,1,1.0,1.0,1.0,1.0,50.00
2022-11-23 20:25:28.708,1.1201079,0.07038186,0.07132675,1.0363306,0.49265498,0.106203854,-0.030584686,0.52581894,0.6374584,0.39759934,0.20244652,0.5731889,0.22212557,-0.18840992,-0.14528437,0.34126207,-0.05739366,-0.32022953,-0.584472,0.24799764,781.685,808.68134,799.011,794.9817,990.0,-0.24810791015625,-0.00213623046875,0.9954833984375,3.09539794921875,-1.831817626953125,0.1495361328125,1,1.0,1.0,1.0,1.0,50.00
2022-11-23 20:25:28.708,1.1201079,0.07038186,0.07132675,1.0363306,0.49265498,0.106203854,-0.030584686,0.52581894,0.6374584,0.39759934,0.20244652,0.5731889,0.22212557,-0.18840992,-0.14528437,0.34126207,-0.05739366,-0.32022953,-0.584472,0.24799764,816.7399,807.8755,803.0403,810.696,869.92676,-0.24810791015625,-0.00213623046875,0.9954833984375,3.09539794921875,-1.831817626953125,0.1495361328125,1,1.0,1.0,1.0,1.0,50.00
2022-11-23 20:25:28.709,1.153655,0.16289572,0.10509477,1.0285608,0.48254678,0.16895422,-0.0052215313,0.540939,0.5312962,0.39759934,0.14857744,0.5628083,0.21390103,-0.20849845,-0.14347818,0.33769864,-0.05723505,-0.32284588,-0.60027397,0.24725106,845.34796,808.2784,798.20514,828.022,856.63007,-0.24810791015625,-0.00213623046875,0.9954833984375,3.09539794921875,-1.831817626953125,0.1495361328125,1,1.0,1.0,1.0,1.0,50.00
2022-11-23 20:25:28.710,1.153655,0.16289572,0.10509477,1.0285608,0.48254678,0.16895422,-0.0052215313,0.540939,0.5312962,0.39759934,0.14857744,0.5628083,0.21390103,-0.20849845,-0.14347818,0.33769864,-0.05723505,-0.32284588,-0.60027397,0.24725106,820.3663,807.8755,801.4286,807.8755,797.8022,-0.24810791015625,-0.00213623046875,0.9954833984375,3.09539794921875,-1.831817626953125,0.1495361328125,1,1.0,1.0,1.0,1.0,50.00
2022-11-23 20:25:28.710,1.153655,0.16289572,0.10509477,1.0285608,0.48254678,0.16895422,-0.0052215313,0.540939,0.5312962,0.39759934,0.14857744,0.5628083,0.21390103,-0.20849845,-0.14347818,0.33769864,-0.05723505,-0.32284588,-0.60027397,0.24725106,786.9231,805.05493,801.8315,783.69965,750.65936,-0.24810791015625,-0.00213623046875,0.9954833984375,3.09539794921875,-1.831817626953125,0.1495361328125,1,1.0,1.0,1.0,1.0,50.00
2022-11-23 20:25:28.758,1.153655,0.16289572,0.10509477,1.0285608,0.48254678,0.16895422,-0.0052215313,0.540939,0.5312962,0.39759934,0.14857744,0.5628083,0.21390103,-0.20849845,-0.14347818,0.33769864,-0.05723505,-0.32284588,-0.60027397,0.24725106,805.8608,806.6667,799.41394,803.8461,736.9597,-0.2412109375,-0.00262451171875,0.99005126953125,2.564544677734375,-0.740203857421875,0.291595458984375,1,1.0,1.0,1.0,1.0,50.00
2022-11-23 20:25:28.758,1.153655,0.16289572,0.10509477,1.0285608,0.48254678,0.16895422,-0.0052215313,0.540939,0.5312962,0.39759934,0.14857744,0.5628083,0.21390103,-0.20849845,-0.14347818,0.33769864,-0.05723505,-0.32284588,-0.60027397,0.24725106,846.55676,811.50183,800.2198,828.8278,799.41394,-0.2412109375,-0.00262451171875,0.99005126953125,2.564544677734375,-0.740203857421875,0.291595458984375,1,1.0,1.0,1.0,1.0,50.00
2022-11-23 20:25:28.758,1.153655,0.16289572,0.10509477,1.0285608,0.48254678,0.16895422,-0.0052215313,0.540939,0.5312962,0.39759934,0.14857744,0.5628083,0.21390103,-0.20849845,-0.14347818,0.33769864,-0.05723505,-0.32284588,-0.60027397,0.24725106,834.0659,810.696,796.5934,811.0989,848.97437,-0.2412109375,-0.00262451171875,0.99005126953125,2.564544677734375,-0.740203857421875,0.291595458984375,1,1.0,1.0,1.0,1.0,50.00
2022-11-23 20:25:28.759,1.153655,0.16289572,0.10509477,1.0285608,0.48254678,0.16895422,-0.0052215313,0.540939,0.5312962,0.39759934,0.14857744,0.5628083,0.21390103,-0.20849845,-0.14347818,0.33769864,-0.05723505,-0.32284588,-0.60027397,0.24725106,790.14655,807.0696,798.20514,789.34064,750.65936,-0.2412109375,-0.00262451171875,0.99005126953125,2.564544677734375,-0.740203857421875,0.291595458984375,1,1.0,1.0,1.0,1.0,50.00
2022-11-23 20:25:28.759,1.153655,0.16289572,0.10509477,1.0285608,0.48254678,0.16895422,-0.0052215313,0.540939,0.5312962,0.39759934,0.14857744,0.5628083,0.21390103,-0.20849845,-0.14347818,0.33769864,-0.05723505,-0.32284588,-0.60027397,0.24725106,792.1612,803.0403,801.4286,806.26373,635.42126,-0.2412109375,-0.00262451171875,0.99005126953125,2.564544677734375,-0.740203857421875,0.291595458984375,1,1.0,1.0,1.0,1.0,50.00
2022-11-23 20:25:28.759,1.153655,0.16289572,0.10509477,1.0285608,0.48254678,0.16895422,-0.0052215313,0.540939,0.5312962,0.39759934,0.14857744,0.5628083,0.21390103,-0.20849845,-0.14347818,0.33769864,-0.05723505,-0.32284588,-0.60027397,0.24725106,826.0073,801.8315,797.3993,825.2015,830.84247,-0.2412109375,-0.00262451171875,0.99005126953125,2.564544677734375,-0.740203857421875,0.291595458984375,1,1.0,1.0,1.0,1.0,50.00
2022-11-23 20:25:28.759,1.153655,0.16289572,0.10509477,1.0285608,0.48254678,0.16895422,-0.0052215313,0.540939,0.5312962,0.39759934,0.14857744,0.5628083,0.21390103,-0.20849845,-0.14347818,0.33769864,-0.05723505,-0.32284588,-0.60027397,0.24725106,824.3956,802.23444,792.1612,817.1429,1140.2931,-0.2412109375,-0.00262451171875,0.99005126953125,2.564544677734375,-0.740203857421875,0.291595458984375,1,1.0,1.0,1.0,1.0,50.00
2022-11-23 20:25:28.760,1.153655,0.16289572,0.10509477,1.0285608,0.48254678,0.16895422,-0.0052215313,0.540939,0.5312962,0.39759934,0.14857744,0.5628083,0.21390103,-0.20849845,-0.14347818,0.33769864,-0.05723505,-0.32284588,-0.60027397,0.24725106,790.14655,801.02563,794.57874,798.60803,848.1685,-0.2412109375,-0.00262451171875,0.99005126953125,2.564544677734375,-0.740203857421875,0.291595458984375,1,1.0,1.0,1.0,1.0,50.00
2022-11-23 20:25:28.760,1.153655,0.16289572,0.10509477,1.0285608,0.48254678,0.16895422,-0.0052215313,0.540939,0.5312962,0.39759934,0.14857744,0.5628083,0.21390103,-0.20849845,-0.14347818,0.33769864,-0.05723505,-0.32284588,-0.60027397,0.24725106,780.4762,803.44324,801.4286,794.9817,553.6264,-0.2412109375,-0.00262451171875,0.99005126953125,2.564544677734375,-0.740203857421875,0.291595458984375,1,1.0,1.0,1.0,1.0,50.00
2022-11-23 20:25:28.760,1.153655,0.16289572,0.10509477,1.0285608,0.48254678,0.16895422,-0.0052215313,0.540939,0.5312962,0.39759934,0.14857744,0.5628083,0.21390103,-0.20849845,-0.14347818,0.33769864,-0.05723505,-0.32284588,-0.60027397,0.24725106,815.9341,805.05493,800.2198,810.293,749.85345,-0.2412109375,-0.00262451171875,0.99005126953125,2.564544677734375,-0.740203857421875,0.291595458984375,1,1.0,1.0,1.0,1.0,50.00
2022-11-23 20:25:28.760,1.153655,0.16289572,0.10509477,1.0285608,0.48254678,0.16895422,-0.0052215313,0.540939,0.5312962,0.39759934,0.14857744,0.5628083,0.21390103,-0.20849845,-0.14347818,0.33769864,-0.05723505,-0.32284588,-0.60027397,0.24725106,830.84247,808.2784,798.20514,810.696,863.47986,-0.2412109375,-0.00262451171875,0.99005126953125,2.564544677734375,-0.740203857421875,0.291595458984375,1,1.0,1.0,1.0,1.0,50.00
2022-11-23 20:25:28.760,1.153655,0.16289572,0.10509477,1.0285608,0.48254678,0.16895422,-0.0052215313,0.540939,0.5312962,0.39759934,0.14857744,0.5628083,0.21390103,-0.20849845,-0.14347818,0.33769864,-0.05723505,-0.32284588,-0.60027397,0.24725106,796.99634,810.293,796.5934,783.69965,683.7729,-0.2412109375,-0.00262451171875,0.99005126953125,2.564544677734375,-0.740203857421875,0.291595458984375,1,1.0,1.0,1.0,1.0,50.00
2022-11-23 20:25:28.781,1.153655,0.16289572,0.10509477,1.0285608,0.48254678,0.16895422,-0.0052215313,0.540939,0.5312962,0.39759934,0.14857744,0.5628083,0.21390103,-0.20849845,-0.14347818,0.33769864,-0.05723505,-0.32284588,-0.60027397,0.24725106,772.01465,807.47253,794.9817,774.0293,604.3956,-0.2501220703125,-0.0013427734375,0.98638916015625,3.2000732421875,0.500946044921875,1.42059326171875,1,1.0,1.0,1.0,1.0,50.00
2022-11-23 20:25:28.782,1.153655,0.16289572,0.10509477,1.0285608,0.48254678,0.16895422,-0.0052215313,0.540939,0.5312962,0.39759934,0.14857744,0.5628083,0.21390103,-0.20849845,-0.14347818,0.33769864,-0.05723505,-0.32284588,-0.60027397,0.24725106,802.23444,807.47253,795.78754,799.81683,857.4359,-0.2501220703125,-0.0013427734375,0.98638916015625,3.2000732421875,0.500946044921875,1.42059326171875,1,1.0,1.0,1.0,1.0,50.00
2022-11-23 20:25:28.782,1.153655,0.16289572,0.10509477,1.0285608,0.48254678,0.16895422,-0.0052215313,0.540939,0.5312962,0.39759934,0.14857744,0.5628083,0.21390103,-0.20849845,-0.14347818,0.33769864,-0.05723505,-0.32284588,-0.60027397,0.24725106,841.31866,809.0842,798.60803,823.5897,1133.8462,-0.2501220703125,-0.0013427734375,0.98638916015625,3.2000732421875,0.500946044921875,1.42059326171875,1,1.0,1.0,1.0,1.0,50.00
2022-11-23 20:25:28.782,1.153655,0.16289572,0.10509477,1.0285608,0.48254678,0.16895422,-0.0052215313,0.540939,0.5312962,0.39759934,0.14857744,0.5628083,0.21390103,-0.20849845,-0.14347818,0.33769864,-0.05723505,-0.32284588,-0.60027397,0.24725106,815.12823,806.6667,794.17584,806.6667,979.92676,-0.2501220703125,-0.0013427734375,0.98638916015625,3.2000732421875,0.500946044921875,1.42059326171875,1,1.0,1.0,1.0,1.0,50.00
2022-11-23 20:25:28.783,1.153655,0.16289572,0.10509477,1.0285608,0.48254678,0.16895422,-0.0052215313,0.540939,0.5312962,0.39759934,0.14857744,0.5628083,0.21390103,-0.20849845,-0.14347818,0.33769864,-0.05723505,-0.32284588,-0.60027397,0.24725106,776.4469,805.4579,794.17584,784.5055,724.0659,-0.2501220703125,-0.0013427734375,0.98638916015625,3.2000732421875,0.500946044921875,1.42059326171875,1,1.0,1.0,1.0,1.0,50.00
2022-11-23 20:25:28.783,1.153655,0.16289572,0.10509477,1.0285608,0.48254678,0.16895422,-0.0052215313,0.540939,0.5312962,0.39759934,0.14857744,0.5628083,0.21390103,-0.20849845,-0.14347818,0.33769864,-0.05723505,-0.32284588,-0.60027397,0.24725106,793.36993,803.44324,799.41394,799.41394,823.9927,-0.2501220703125,-0.0013427734375,0.98638916015625,3.2000732421875,0.500946044921875,1.42059326171875,1,1.0,1.0,1.0,1.0,50.00
2022-11-23 20:25:28.783,1.153655,0.16289572,0.10509477,1.0285608,0.48254678,0.16895422,-0.0052215313,0.540939,0.5312962,0.39759934,0.14857744,0.5628083,0.21390103,-0.20849845,-0.14347818,0.33769864,-0.05723505,-0.32284588,-0.60027397,0.24725106,833.2601,802.6374,801.8315,831.6484,981.53845,-0.2501220703125,-0.0013427734375,0.98638916015625,3.2000732421875,0.500946044921875,1.42059326171875,1,1.0,1.0,1.0,1.0,50.00
2022-11-23 20:25:28.784,1.153655,0.16289572,0.10509477,1.0285608,0.48254678,0.16895422,-0.0052215313,0.540939,0.5312962,0.39759934,0.14857744,0.5628083,0.21390103,-0.20849845,-0.14347818,0.33769864,-0.05723505,-0.32284588,-0.60027397,0.24725106,830.4396,805.8608,803.8461,823.9927,844.5421,-0.2501220703125,-0.0013427734375,0.98638916015625,3.2000732421875,0.500946044921875,1.42059326171875,1,1.0,1.0,1.0,1.0,50.00
2022-11-23 20:25:28.784,1.153655,0.16289572,0.10509477,1.0285608,0.48254678,0.16895422,-0.0052215313,0.540939,0.5312962,0.39759934,0.14857744,0.5628083,0.21390103,-0.20849845,-0.14347818,0.33769864,-0.05723505,-0.32284588,-0.60027397,0.24725106,794.57874,807.8755,803.44324,791.3553,627.76556,-0.2501220703125,-0.0013427734375,0.98638916015625,3.2000732421875,0.500946044921875,1.42059326171875,1,1.0,1.0,1.0,1.0,50.00
2022-11-23 20:25:28.784,1.153655,0.16289572,0.10509477,1.0285608,0.48254678,0.16895422,-0.0052215313,0.540939,0.5312962,0.39759934,0.14857744,0.5628083,0.21390103,-0.20849845,-0.14347818,0.33769864,-0.05723505,-0.32284588,-0.60027397,0.24725106,794.17584,807.8755,806.6667,802.6374,714.3956,-0.2501220703125,-0.0013427734375,0.98638916015625,3.2000732421875,0.500946044921875,1.42059326171875,1,1.0,1.0,1.0,1.0,50.00
2022-11-23 20:25:28.784,1.153655,0.16289572,0.10509477,1.0285608,0.48254678,0.16895422,-0.0052215313,0.540939,0.5312962,0.39759934,0.14857744,0.5628083,0.21390103,-0.20849845,-0.14347818,0.33769864,-0.05723505,-0.32284588,-0.60027397,0.24725106,836.8865,807.47253,811.50183,834.0659,898.1319,-0.2501220703125,-0.0013427734375,0.98638916015625,3.2000732421875,0.500946044921875,1.42059326171875,1,1.0,1.0,1.0,1.0,50.00
2022-11-23 20:25:28.785,1.162255,0.23221353,0.14408126,1.0064075,0.46214512,0.19561332,0.01576669,0.54445595,0.5005995,0.39759934,0.13804647,0.58383846,0.21463497,-0.2245777,-0.13912542,0.33378384,-0.061194446,-0.3316306,-0.6039373,0.23853911,850.58606,808.68134,807.47253,826.0073,806.26373,-0.2501220703125,-0.0013427734375,0.98638916015625,3.2000732421875,0.500946044921875,1.42059326171875,1,1.0,1.0,1.0,1.0,50.00
2022-11-23 20:25:28.840,1.162255,0.23221353,0.14408126,1.0064075,0.46214512,0.19561332,0.01576669,0.54445595,0.5005995,0.39759934,0.13804647,0.58383846,0.21463497,-0.2245777,-0.13912542,0.33378384,-0.061194446,-0.3316306,-0.6039373,0.23853911,804.2491,800.2198,801.8315,790.14655,681.3553,-0.2501220703125,-0.0013427734375,0.98638916015625,3.2000732421875,0.500946044921875,1.42059326171875,1,1.0,1.0,1.0,1.0,50.00
2022-11-23 20:25:28.841,1.162255,0.23221353,0.14408126,1.0064075,0.46214512,0.19561332,0.01576669,0.54445595,0.5005995,0.39759934,0.13804647,0.58383846,0.21463497,-0.2245777,-0.13912542,0.33378384,-0.061194446,-0.3316306,-0.6039373,0.23853911,782.0879,800.2198,801.8315,787.72894,622.52747,-0.2501220703125,-0.0013427734375,0.98638916015625,3.2000732421875,0.500946044921875,1.42059326171875,1,1.0,1.0,1.0,1.0,50.00
2022-11-23 20:25:28.841,1.162255,0.23221353,0.14408126,1.0064075,0.46214512,0.19561332,0.01576669,0.54445595,0.5005995,0.39759934,0.13804647,0.58383846,0.21463497,-0.2245777,-0.13912542,0.33378384,-0.061194446,-0.3316306,-0.6039373,0.23853911,815.5311,805.4579,805.05493,821.978,724.4689,-0.2501220703125,-0.0013427734375,0.98638916015625,3.2000732421875,0.500946044921875,1.42059326171875,1,1.0,1.0,1.0,1.0,50.00
2022-11-23 20:25:28.841,1.162255,0.23221353,0.14408126,1.0064075,0.46214512,0.19561332,0.01576669,0.54445595,0.5005995,0.39759934,0.13804647,0.58383846,0.21463497,-0.2245777,-0.13912542,0.33378384,-0.061194446,-0.3316306,-0.6039373,0.23853911,827.2161,803.44324,804.2491,823.9927,862.27106,-0.2501220703125,-0.0013427734375,0.98638916015625,3.2000732421875,0.500946044921875,1.42059326171875,1,1.0,1.0,1.0,1.0,50.00
2022-11-23 20:25:28.842,1.162255,0.23221353,0.14408126,1.0064075,0.46214512,0.19561332,0.01576669,0.54445595,0.5005995,0.39759934,0.13804647,0.58383846,0.21463497,-0.2245777,-0.13912542,0.33378384,-0.061194446,-0.3316306,-0.6039373,0.23853911,792.96704,802.23444,799.011,792.5641,782.0879,-0.2501220703125,-0.0013427734375,0.98638916015625,3.2000732421875,0.500946044921875,1.42059326171875,1,1.0,1.0,1.0,1.0,50.00
2022-11-23 20:25:28.842,1.162255,0.23221353,0.14408126,1.0064075,0.46214512,0.19561332,0.01576669,0.54445595,0.5005995,0.39759934,0.13804647,0.58383846,0.21463497,-0.2245777,-0.13912542,0.33378384,-0.061194446,-0.3316306,-0.6039373,0.23853911,766.77655,807.8755,802.23444,778.0586,840.5128,-0.2501220703125,-0.0013427734375,0.98638916015625,3.2000732421875,0.500946044921875,1.42059326171875,1,1.0,1.0,1.0,1.0,50.00
2022-11-23 20:25:28.842,1.162255,0.23221353,0.14408126,1.0064075,0.46214512,0.19561332,0.01576669,0.54445595,0.5005995,0.39759934,0.13804647,0.58383846,0.21463497,-0.2245777,-0.13912542,0.33378384,-0.061194446,-0.3316306,-0.6039373,0.23853911,792.5641,809.4872,805.8608,798.60803,922.3077,-0.2501220703125,-0.0013427734375,0.98638916015625,3.2000732421875,0.500946044921875,1.42059326171875,1,1.0,1.0,1.0,1.0,50.00
2022-11-23 20:25:28.843,1.162255,0.23221353,0.14408126,1.0064075,0.46214512,0.19561332,0.01576669,0.54445595,0.5005995,0.39759934,0.13804647,0.58383846,0.21463497,-0.2245777,-0.13912542,0.33378384,-0.061194446,-0.3316306,-0.6039373,0.23853911,824.7985,806.6667,805.8608,820.3663,882.01465,-0.2501220703125,-0.0013427734375,0.98638916015625,3.2000732421875,0.500946044921875,1.42059326171875,1,1.0,1.0,1.0,1.0,50.00
2022-11-23 20:25:28.843,1.162255,0.23221353,0.14408126,1.0064075,0.46214512,0.19561332,0.01576669,0.54445595,0.5005995,0.39759934,0.13804647,0.58383846,0.21463497,-0.2245777,-0.13912542,0.33378384,-0.061194446,-0.3316306,-0.6039373,0.23853911,809.0842,807.8755,806.6667,809.0842,875.56775,-0.2501220703125,-0.0013427734375,0.98638916015625,3.2000732421875,0.500946044921875,1.42059326171875,1,1.0,1.0,1.0,1.0,50.00
2022-11-23 20:25:28.843,1.162255,0.23221353,0.14408126,1.0064075,0.46214512,0.19561332,0.01576669,0.54445595,0.5005995,0.39759934,0.13804647,0.58383846,0.21463497,-0.2245777,-0.13912542,0.33378384,-0.061194446,-0.3316306,-0.6039373,0.23853911,771.6117,804.2491,810.696,785.31134,769.19415,-0.2501220703125,-0.0013427734375,0.98638916015625,3.2000732421875,0.500946044921875,1.42059326171875,1,1.0,1.0,1.0,1.0,50.00
2022-11-23 20:25:28.843,1.162255,0.23221353,0.14408126,1.0064075,0.46214512,0.19561332,0.01576669,0.54445595,0.5005995,0.39759934,0.13804647,0.58383846,0.21463497,-0.2245777,-0.13912542,0.33378384,-0.061194446,-0.3316306,-0.6039373,0.23853911,780.07324,802.6374,810.293,794.9817,711.5751,-0.2501220703125,-0.0013427734375,0.98638916015625,3.2000732421875,0.500946044921875,1.42059326171875,1,1.0,1.0,1.0,1.0,50.00
2022-11-23 20:25:28.844,1.162255,0.23221353,0.14408126,1.0064075,0.46214512,0.19561332,0.01576669,0.54445595,0.5005995,0.39759934,0.13804647,0.58383846,0.21463497,-0.2245777,-0.13912542,0.33378384,-0.061194446,-0.3316306,-0.6039373,0.23853911,819.15753,803.0403,807.47253,816.7399,821.978,-0.2501220703125,-0.0013427734375,0.98638916015625,3.2000732421875,0.500946044921875,1.42059326171875,1,1.0,1.0,1.0,1.0,50.00
2022-11-23 20:25:28.889,1.162255,0.23221353,0.14408126,1.0064075,0.46214512,0.19561332,0.01576669,0.54445595,0.5005995,0.39759934,0.13804647,0.58383846,0.21463497,-0.2245777,-0.13912542,0.33378384,-0.061194446,-0.3316306,-0.6039373,0.23853911,811.50183,803.44324,809.4872,811.0989,899.34064,-0.26007080078125,-0.01031494140625,0.97784423828125,3.3795166015625,0.67291259765625,0.411224365234375,1,1.0,1.0,1.0,1.0,50.00
2022-11-23 20:25:28.889,1.162255,0.23221353,0.14408126,1.0064075,0.46214512,0.19561332,0.01576669,0.54445595,0.5005995,0.39759934,0.13804647,0.58383846,0.21463497,-0.2245777,-0.13912542,0.33378384,-0.061194446,-0.3316306,-0.6039373,0.23853911,767.5824,805.05493,812.71063,787.326,745.42126,-0.26007080078125,-0.01031494140625,0.97784423828125,3.3795166015625,0.67291259765625,0.411224365234375,1,1.0,1.0,1.0,1.0,50.00
2022-11-23 20:25:28.890,1.162255,0.23221353,0.14408126,1.0064075,0.46214512,0.19561332,0.01576669,0.54445595,0.5005995,0.39759934,0.13804647,0.58383846,0.21463497,-0.2245777,-0.13912542,0.33378384,-0.061194446,-0.3316306,-0.6039373,0.23853911,757.50916,805.8608,812.3077,778.86444,634.21246,-0.26007080078125,-0.01031494140625,0.97784423828125,3.3795166015625,0.67291259765625,0.411224365234375,1,1.0,1.0,1.0,1.0,50.00
2022-11-23 20:25:28.890,1.162255,0.23221353,0.14408126,1.0064075,0.46214512,0.19561332,0.01576669,0.54445595,0.5005995,0.39759934,0.13804647,0.58383846,0.21463497,-0.2245777,-0.13912542,0.33378384,-0.061194446,-0.3316306,-0.6039373,0.23853911,793.36993,800.6227,809.0842,799.81683,789.34064,-0.26007080078125,-0.01031494140625,0.97784423828125,3.3795166015625,0.67291259765625,0.411224365234375,1,1.0,1.0,1.0,1.0,50.00
2022-11-23 20:25:28.890,1.162255,0.23221353,0.14408126,1.0064075,0.46214512,0.19561332,0.01576669,0.54445595,0.5005995,0.39759934,0.13804647,0.58383846,0.21463497,-0.2245777,-0.13912542,0.33378384,-0.061194446,-0.3316306,-0.6039373,0.23853911,813.91943,797.8022,810.293,811.0989,854.61536,-0.26007080078125,-0.01031494140625,0.97784423828125,3.3795166015625,0.67291259765625,0.411224365234375,1,1.0,1.0,1.0,1.0,50.00
2022-11-23 20:25:28.890,1.162255,0.23221353,0.14408126,1.0064075,0.46214512,0.19561332,0.01576669,0.54445595,0.5005995,0.39759934,0.13804647,0.58383846,0.21463497,-0.2245777,-0.13912542,0.33378384,-0.061194446,-0.3316306,-0.6039373,0.23853911,789.7436,803.8461,807.0696,794.57874,774.0293,-0.26007080078125,-0.01031494140625,0.97784423828125,3.3795166015625,0.67291259765625,0.411224365234375,1,1.0,1.0,1.0,1.0,50.00
2022-11-23 20:25:28.890,1.162255,0.23221353,0.14408126,1.0064075,0.46214512,0.19561332,0.01576669,0.54445595,0.5005995,0.39759934,0.13804647,0.58383846,0.21463497,-0.2245777,-0.13912542,0.33378384,-0.061194446,-0.3316306,-0.6039373,0.23853911,787.326,807.8755,807.8755,797.3993,698.68134,-0.26007080078125,-0.01031494140625,0.97784423828125,3.3795166015625,0.67291259765625,0.411224365234375,1,1.0,1.0,1.0,1.0,50.00
2022-11-23 20:25:28.891,1.162255,0.23221353,0.14408126,1.0064075,0.46214512,0.19561332,0.01576669,0.54445595,0.5005995,0.39759934,0.13804647,0.58383846,0.21463497,-0.2245777,-0.13912542,0.33378384,-0.061194446,-0.3316306,-0.6039373,0.23853911,808.2784,807.47253,818.3516,815.9341,738.1685,-0.26007080078125,-0.01031494140625,0.97784423828125,3.3795166015625,0.67291259765625,0.411224365234375,1,1.0,1.0,1.0,1.0,50.00
2022-11-23 20:25:28.891,1.162255,0.23221353,0.14408126,1.0064075,0.46214512,0.19561332,0.01576669,0.54445595,0.5005995,0.39759934,0.13804647,0.58383846,0.21463497,-0.2245777,-0.13912542,0.33378384,-0.061194446,-0.3316306,-0.6039373,0.23853911,808.68134,801.4286,816.337,808.68134,1004.10254,-0.26007080078125,-0.01031494140625,0.97784423828125,3.3795166015625,0.67291259765625,0.411224365234375,1,1.0,1.0,1.0,1.0,50.00
2022-11-23 20:25:28.891,1.162255,0.23221353,0.14408126,1.0064075,0.46214512,0.19561332,0.01576669,0.54445595,0.5005995,0.39759934,0.13804647,0.58383846,0.21463497,-0.2245777,-0.13912542,0.33378384,-0.061194446,-0.3316306,-0.6039373,0.23853911,774.83514,799.41394,805.8608,773.22345,1058.9011,-0.26007080078125,-0.01031494140625,0.97784423828125,3.3795166015625,0.67291259765625,0.411224365234375,1,1.0,1.0,1.0,1.0,50.00
2022-11-23 20:25:28.891,1.162255,0.23221353,0.14408126,1.0064075,0.46214512,0.19561332,0.01576669,0.54445595,0.5005995,0.39759934,0.13804647,0.58383846,0.21463497,-0.2245777,-0.13912542,0.33378384,-0.061194446,-0.3316306,-0.6039373,0.23853911,731.7216,800.2198,805.8608,737.3626,667.25275,-0.26007080078125,-0.01031494140625,0.97784423828125,3.3795166015625,0.67291259765625,0.411224365234375,1,1.0,1.0,1.0,1.0,50.00
2022-11-23 20:25:28.892,1.162255,0.23221353,0.14408126,1.0064075,0.46214512,0.19561332,0.01576669,0.54445595,0.5005995,0.39759934,0.13804647,0.58383846,0.21463497,-0.2245777,-0.13912542,0.33378384,-0.061194446,-0.3316306,-0.6039373,0.23853911,737.3626,799.011,812.3077,741.39197,604.3956,-0.26007080078125,-0.01031494140625,0.97784423828125,3.3795166015625,0.67291259765625,0.411224365234375,1,1.0,1.0,1.0,1.0,50.00
2022-11-23 20:25:28.938,1.162255,0.23221353,0.14408126,1.0064075,0.46214512,0.19561332,0.01576669,0.54445595,0.5005995,0.39759934,0.13804647,0.58383846,0.21463497,-0.2245777,-0.13912542,0.33378384,-0.061194446,-0.3316306,-0.6039373,0.23853911,768.7912,804.65204,813.1135,755.09155,802.6374,-0.254638671875,-0.01348876953125,1.00653076171875,4.448699951171875,0.49346923828125,-0.710296630859375,1,1.0,1.0,1.0,1.0,50.00
2022-11-23 20:25:28.939,1.1405818,0.26890448,0.18006279,0.9792835,0.4484484,0.19957957,0.038077164,0.5484346,0.38669196,0.39759934,0.11639239,0.58383846,0.21473508,-0.235842,-0.13836813,0.32770124,-0.04920383,-0.35471344,-0.60405695,0.22952199,736.9597,809.0842,807.8755,720.4396,770.80585,-0.254638671875,-0.01348876953125,1.00653076171875,4.448699951171875,0.49346923828125,-0.710296630859375,1,1.0,1.0,1.0,1.0,50.00
2022-11-23 20:25:28.940,1.1405818,0.26890448,0.18006279,0.9792835,0.4484484,0.19957957,0.038077164,0.5484346,0.38669196,0.39759934,0.11639239,0.58383846,0.21473508,-0.235842,-0.13836813,0.32770124,-0.04920383,-0.35471344,-0.60405695,0.22952199,676.1172,801.4286,811.50183,685.38464,615.2747,-0.254638671875,-0.01348876953125,1.00653076171875,4.448699951171875,0.49346923828125,-0.710296630859375,1,1.0,1.0,1.0,1.0,50.00
2022-11-23 20:25:28.940,1.1405818,0.26890448,0.18006279,0.9792835,0.4484484,0.19957957,0.038077164,0.5484346,0.38669196,0.39759934,0.11639239,0.58383846,0.21473508,-0.235842,-0.13836813,0.32770124,-0.04920383,-0.35471344,-0.60405695,0.22952199,679.7436,800.6227,818.3516,708.3516,600.7692,-0.254638671875,-0.01348876953125,1.00653076171875,4.448699951171875,0.49346923828125,-0.710296630859375,1,1.0,1.0,1.0,1.0,50.00
2022-11-23 20:25:28.941,1.1405818,0.26890448,0.18006279,0.9792835,0.4484484,0.19957957,0.038077164,0.5484346,0.38669196,0.39759934,0.11639239,0.58383846,0.21473508,-0.235842,-0.13836813,0.32770124,-0.04920383,-0.35471344,-0.60405695,0.22952199,709.5604,809.89014,815.9341,709.15753,783.69965,-0.254638671875,-0.01348876953125,1.00653076171875,4.448699951171875,0.49346923828125,-0.710296630859375,1,1.0,1.0,1.0,1.0,50.00
2022-11-23 20:25:28.941,1.1405818,0.26890448,0.18006279,0.9792835,0.4484484,0.19957957,0.038077164,0.5484346,0.38669196,0.39759934,0.11639239,0.58383846,0.21473508,-0.235842,-0.13836813,0.32770124,-0.04920383,-0.35471344,-0.60405695,0.22952199,703.91943,809.4872,811.50183,684.9817,893.2967,-0.254638671875,-0.01348876953125,1.00653076171875,4.448699951171875,0.49346923828125,-0.710296630859375,1,1.0,1.0,1.0,1.0,50.00
2022-11-23 20:25:28.941,1.1405818,0.26890448,0.18006279,0.9792835,0.4484484,0.19957957,0.038077164,0.5484346,0.38669196,0.39759934,0.11639239,0.58383846,0.21473508,-0.235842,-0.13836813,0.32770124,-0.04920383,-0.35471344,-0.60405695,0.22952199,668.0586,811.0989,814.7253,669.67035,741.39197,-0.254638671875,-0.01348876953125,1.00653076171875,4.448699951171875,0.49346923828125,-0.710296630859375,1,1.0,1.0,1.0,1.0,50.00
2022-11-23 20:25:28.941,1.1405818,0.26890448,0.18006279,0.9792835,0.4484484,0.19957957,0.038077164,0.5484346,0.38669196,0.39759934,0.11639239,0.58383846,0.21473508,-0.235842,-0.13836813,0.32770124,-0.04920383,-0.35471344,-0.60405695,0.22952199,657.98535,819.9634,817.1429,668.46155,626.55676,-0.254638671875,-0.01348876953125,1.00653076171875,4.448699951171875,0.49346923828125,-0.710296630859375,1,1.0,1.0,1.0,1.0,50.00
2022-11-23 20:25:28.942,1.1405818,0.26890448,0.18006279,0.9792835,0.4484484,0.19957957,0.038077164,0.5484346,0.38669196,0.39759934,0.11639239,0.58383846,0.21473508,-0.235842,-0.13836813,0.32770124,-0.04920383,-0.35471344,-0.60405695,0.22952199,689.011,821.1722,815.12823,690.2198,958.1685,-0.254638671875,-0.01348876953125,1.00653076171875,4.448699951171875,0.49346923828125,-0.710296630859375,1,1.0,1.0,1.0,1.0,50.00
2022-11-23 20:25:28.942,1.1405818,0.26890448,0.18006279,0.9792835,0.4484484,0.19957957,0.038077164,0.5484346,0.38669196,0.39759934,0.11639239,0.58383846,0.21473508,-0.235842,-0.13836813,0.32770124,-0.04920383,-0.35471344,-0.60405695,0.22952199,708.7546,818.3516,813.1135,693.0403,1169.3041,-0.254638671875,-0.01348876953125,1.00653076171875,4.448699951171875,0.49346923828125,-0.710296630859375,1,1.0,1.0,1.0,1.0,50.00
2022-11-23 20:25:28.942,1.1405818,0.26890448,0.18006279,0.9792835,0.4484484,0.19957957,0.038077164,0.5484346,0.38669196,0.39759934,0.11639239,0.58383846,0.21473508,-0.235842,-0.13836813,0.32770124,-0.04920383,-0.35471344,-0.60405695,0.22952199,678.93774,813.91943,815.9341,666.8498,848.1685,-0.254638671875,-0.01348876953125,1.00653076171875,4.448699951171875,0.49346923828125,-0.710296630859375,1,1.0,1.0,1.0,1.0,50.00
2022-11-23 20:25:28.942,1.1405818,0.26890448,0.18006279,0.9792835,0.4484484,0.19957957,0.038077164,0.5484346,0.38669196,0.39759934,0.11639239,0.58383846,0.21473508,-0.235842,-0.13836813,0.32770124,-0.04920383,-0.35471344,-0.60405695,0.22952199,649.92676,813.1135,813.5165,659.19415,687.3993,-0.254638671875,-0.01348876953125,1.00653076171875,4.448699951171875,0.49346923828125,-0.710296630859375,1,1.0,1.0,1.0,1.0,50.00
2022-11-23 20:25:29.000,1.1405818,0.26890448,0.18006279,0.9792835,0.4484484,0.19957957,0.038077164,0.5484346,0.38669196,0.39759934,0.11639239,0.58383846,0.21473508,-0.235842,-0.13836813,0.32770124,-0.04920383,-0.35471344,-0.60405695,0.22952199,677.326,811.9048,809.4872,692.23444,810.293,-0.24810791015625,0.00445556640625,0.99896240234375,5.839385986328125,0.695343017578125,1.801910400390625,1,1.0,1.0,1.0,1.0,50.00
2022-11-23 20:25:29.000,1.1405818,0.26890448,0.18006279,0.9792835,0.4484484,0.19957957,0.038077164,0.5484346,0.38669196,0.39759934,0.11639239,0.58383846,0.21473508,-0.235842,-0.13836813,0.32770124,-0.04920383,-0.35471344,-0.60405695,0.22952199,725.6777,814.7253,811.0989,716.8132,853.00366,-0.24810791015625,0.00445556640625,0.99896240234375,5.839385986328125,0.695343017578125,1.801910400390625,1,1.0,1.0,1.0,1.0,50.00
2022-11-23 20:25:29.000,1.1405818,0.26890448,0.18006279,0.9792835,0.4484484,0.19957957,0.038077164,0.5484346,0.38669196,0.39759934,0.11639239,0.58383846,0.21473508,-0.235842,-0.13836813,0.32770124,-0.04920383,-0.35471344,-0.60405695,0.22952199,715.6044,815.5311,810.293,707.9487,846.9597,-0.24810791015625,0.00445556640625,0.99896240234375,5.839385986328125,0.695343017578125,1.801910400390625,1,1.0,1.0,1.0,1.0,50.00
2022-11-23 20:25:29.001,1.1405818,0.26890448,0.18006279,0.9792835,0.4484484,0.19957957,0.038077164,0.5484346,0.38669196,0.39759934,0.11639239,0.58383846,0.21473508,-0.235842,-0.13836813,0.32770124,-0.04920383,-0.35471344,-0.60405695,0.22952199,674.5055,805.05493,812.3077,686.5934,725.6777,-0.24810791015625,0.00445556640625,0.99896240234375,5.839385986328125,0.695343017578125,1.801910400390625,1,1.0,1.0,1.0,1.0,50.00
2022-11-23 20:25:29.001,1.1405818,0.26890448,0.18006279,0.9792835,0.4484484,0.19957957,0.038077164,0.5484346,0.38669196,0.39759934,0.11639239,0.58383846,0.21473508,-0.235842,-0.13836813,0.32770124,-0.04920383,-0.35471344,-0.60405695,0.22952199,689.011,800.2198,810.696,691.8315,670.07324,-0.24810791015625,0.00445556640625,0.99896240234375,5.839385986328125,0.695343017578125,1.801910400390625,1,1.0,1.0,1.0,1.0,50.00
2022-11-23 20:25:29.001,1.1405818,0.26890448,0.18006279,0.9792835,0.4484484,0.19957957,0.038077164,0.5484346,0.38669196,0.39759934,0.11639239,0.58383846,0.21473508,-0.235842,-0.13836813,0.32770124,-0.04920383,-0.35471344,-0.60405695,0.22952199,722.0513,806.26373,814.7253,709.9634,847.76556,-0.24810791015625,0.00445556640625,0.99896240234375,5.839385986328125,0.695343017578125,1.801910400390625,1,1.0,1.0,1.0,1.0,50.00
2022-11-23 20:25:29.002,1.1405818,0.26890448,0.18006279,0.9792835,0.4484484,0.19957957,0.038077164,0.5484346,0.38669196,0.39759934,0.11639239,0.58383846,0.21473508,-0.235842,-0.13836813,0.32770124,-0.04920383,-0.35471344,-0.60405695,0.22952199,720.84247,809.89014,819.9634,710.3663,871.13556,-0.24810791015625,0.00445556640625,0.99896240234375,5.839385986328125,0.695343017578125,1.801910400390625,1,1.0,1.0,1.0,1.0,50.00
2022-11-23 20:25:29.002,1.1405818,0.26890448,0.18006279,0.9792835,0.4484484,0.19957957,0.038077164,0.5484346,0.38669196,0.39759934,0.11639239,0.58383846,0.21473508,-0.235842,-0.13836813,0.32770124,-0.04920383,-0.35471344,-0.60405695,0.22952199,694.65204,810.696,819.5604,699.4872,835.6777,-0.24810791015625,0.00445556640625,0.99896240234375,5.839385986328125,0.695343017578125,1.801910400390625,1,1.0,1.0,1.0,1.0,50.00
2022-11-23 20:25:29.002,1.1405818,0.26890448,0.18006279,0.9792835,0.4484484,0.19957957,0.038077164,0.5484346,0.38669196,0.39759934,0.11639239,0.58383846,0.21473508,-0.235842,-0.13836813,0.32770124,-0.04920383,-0.35471344,-0.60405695,0.22952199,700.293,807.8755,819.5604,714.3956,834.87177,-0.24810791015625,0.00445556640625,0.99896240234375,5.839385986328125,0.695343017578125,1.801910400390625,1,1.0,1.0,1.0,1.0,50.00
2022-11-23 20:25:29.002,1.1405818,0.26890448,0.18006279,0.9792835,0.4484484,0.19957957,0.038077164,0.5484346,0.38669196,0.39759934,0.11639239,0.58383846,0.21473508,-0.235842,-0.13836813,0.32770124,-0.04920383,-0.35471344,-0.60405695,0.22952199,746.2271,805.4579,815.9341,741.79486,786.52014,-0.24810791015625,0.00445556640625,0.99896240234375,5.839385986328125,0.695343017578125,1.801910400390625,1,1.0,1.0,1.0,1.0,50.00
2022-11-23 20:25:29.003,1.1405818,0.26890448,0.18006279,0.9792835,0.4484484,0.19957957,0.038077164,0.5484346,0.38669196,0.39759934,0.11639239,0.58383846,0.21473508,-0.235842,-0.13836813,0.32770124,-0.04920383,-0.35471344,-0.60405695,0.22952199,763.5531,805.8608,811.50183,748.6447,927.5458,-0.24810791015625,0.00445556640625,0.99896240234375,5.839385986328125,0.695343017578125,1.801910400390625,1,1.0,1.0,1.0,1.0,50.00
2022-11-23 20:25:29.003,1.1405818,0.26890448,0.18006279,0.9792835,0.4484484,0.19957957,0.038077164,0.5484346,0.38669196,0.39759934,0.11639239,0.58383846,0.21473508,-0.235842,-0.13836813,0.32770124,-0.04920383,-0.35471344,-0.60405695,0.22952199,738.1685,801.4286,804.2491,730.10986,828.8278,-0.24810791015625,0.00445556640625,0.99896240234375,5.839385986328125,0.695343017578125,1.801910400390625,1,1.0,1.0,1.0,1.0,50.00
2022-11-23 20:25:29.025,1.1405818,0.26890448,0.18006279,0.9792835,0.4484484,0.19957957,0.038077164,0.5484346,0.38669196,0.39759934,0.11639239,0.58383846,0.21473508,-0.235842,-0.13836813,0.32770124,-0.04920383,-0.35471344,-0.60405695,0.22952199,726.4835,797.3993,803.44324,728.9011,777.25275,-0.29010009765625,0.0120849609375,0.9664306640625,6.616973876953125,4.725341796875,1.607513427734375,1,1.0,1.0,1.0,1.0,50.00
2022-11-23 20:25:29.026,1.1405818,0.26890448,0.18006279,0.9792835,0.4484484,0.19957957,0.038077164,0.5484346,0.38669196,0.39759934,0.11639239,0.58383846,0.21473508,-0.235842,-0.13836813,0.32770124,-0.04920383,-0.35471344,-0.60405695,0.22952199,755.4945,797.8022,801.8315,752.27106,933.1868,-0.29010009765625,0.0120849609375,0.9664306640625,6.616973876953125,4.725341796875,1.607513427734375,1,1.0,1.0,1.0,1.0,50.00
2022-11-23 20:25:29.026,1.1405818,0.26890448,0.18006279,0.9792835,0.4484484,0.19957957,0.038077164,0.5484346,0.38669196,0.39759934,0.11639239,0.58383846,0.21473508,-0.235842,-0.13836813,0.32770124,-0.04920383,-0.35471344,-0.60405695,0.22952199,780.07324,799.41394,801.02563,767.1795,1003.2967,-0.29010009765625,0.0120849609375,0.9664306640625,6.616973876953125,4.725341796875,1.607513427734375,1,1.0,1.0,1.0,1.0,50.00
2022-11-23 20:25:29.027,1.1405818,0.28305036,0.21954918,0.9486924,0.4484484,0.19198605,0.05871101,0.5581076,0.38669196,0.39759934,0.085652344,0.58383846,0.21473508,-0.23868413,-0.13964763,0.30912653,-0.04920383,-0.3930312,-0.6058321,0.2038706,759.92676,798.60803,807.47253,752.674,924.7253,-0.29010009765625,0.0120849609375,0.9664306640625,6.616973876953125,4.725341796875,1.607513427734375,1,1.0,1.0,1.0,1.0,50.00
2022-11-23 20:25:29.028,1.1405818,0.28305036,0.21954918,0.9486924,0.4484484,0.19198605,0.05871101,0.5581076,0.38669196,0.39759934,0.085652344,0.58383846,0.21473508,-0.23868413,-0.13964763,0.30912653,-0.04920383,-0.3930312,-0.6058321,0.2038706,741.39197,800.6227,807.0696,747.4359,681.75824,-0.29010009765625,0.0120849609375,0.9664306640625,6.616973876953125,4.725341796875,1.607513427734375,1,1.0,1.0,1.0,1.0,50.00
2022-11-23 20:25:29.028,1.1405818,0.28305036,0.21954918,0.9486924,0.4484484,0.19198605,0.05871101,0.5581076,0.38669196,0.39759934,0.085652344,0.58383846,0.21473508,-0.23868413,-0.13964763,0.30912653,-0.04920383,-0.3930312,-0.6058321,0.2038706,769.19415,796.99634,804.65204,776.4469,616.08057,-0.29010009765625,0.0120849609375,0.9664306640625,6.616973876953125,4.725341796875,1.607513427734375,1,1.0,1.0,1.0,1.0,50.00
2022-11-23 20:25:29.028,1.1405818,0.28305036,0.21954918,0.9486924,0.4484484,0.19198605,0.05871101,0.5581076,0.38669196,0.39759934,0.085652344,0.58383846,0.21473508,-0.23868413,-0.13964763,0.30912653,-0.04920383,-0.3930312,-0.6058321,0.2038706,805.8608,792.1612,804.2491,801.8315,861.8681,-0.29010009765625,0.0120849609375,0.9664306640625,6.616973876953125,4.725341796875,1.607513427734375,1,1.0,1.0,1.0,1.0,50.00
2022-11-23 20:25:29.029,1.1405818,0.28305036,0.21954918,0.9486924,0.4484484,0.19198605,0.05871101,0.5581076,0.38669196,0.39759934,0.085652344,0.58383846,0.21473508,-0.23868413,-0.13964763,0.30912653,-0.04920383,-0.3930312,-0.6058321,0.2038706,798.20514,798.20514,805.8608,782.49084,847.3626,-0.29010009765625,0.0120849609375,0.9664306640625,6.616973876953125,4.725341796875,1.607513427734375,1,1.0,1.0,1.0,1.0,50.00
2022-11-23 20:25:29.029,1.1405818,0.28305036,0.21954918,0.9486924,0.4484484,0.19198605,0.05871101,0.5581076,0.38669196,0.39759934,0.085652344,0.58383846,0.21473508,-0.23868413,-0.13964763,0.30912653,-0.04920383,-0.3930312,-0.6058321,0.2038706,776.4469,802.23444,805.8608,764.35895,593.5165,-0.29010009765625,0.0120849609375,0.9664306640625,6.616973876953125,4.725341796875,1.607513427734375,1,1.0,1.0,1.0,1.0,50.00
2022-11-23 20:25:29.029,1.1405818,0.28305036,0.21954918,0.9486924,0.4484484,0.19198605,0.05871101,0.5581076,0.38669196,0.39759934,0.085652344,0.58383846,0.21473508,-0.23868413,-0.13964763,0.30912653,-0.04920383,-0.3930312,-0.6058321,0.2038706,798.20514,801.4286,807.47253,790.9524,569.34064,-0.29010009765625,0.0120849609375,0.9664306640625,6.616973876953125,4.725341796875,1.607513427734375,1,1.0,1.0,1.0,1.0,50.00
2022-11-23 20:25:29.029,1.1405818,0.28305036,0.21954918,0.9486924,0.4484484,0.19198605,0.05871101,0.5581076,0.38669196,0.39759934,0.085652344,0.58383846,0.21473508,-0.23868413,-0.13964763,0.30912653,-0.04920383,-0.3930312,-0.6058321,0.2038706,836.4835,799.81683,804.65204,820.3663,798.20514,-0.29010009765625,0.0120849609375,0.9664306640625,6.616973876953125,4.725341796875,1.607513427734375,1,1.0,1.0,1.0,1.0,50.00
2022-11-23 20:25:29.030,1.1405818,0.28305036,0.21954918,0.9486924,0.4484484,0.19198605,0.05871101,0.5581076,0.38669196,0.39759934,0.085652344,0.58383846,0.21473508,-0.23868413,-0.13964763,0.30912653,-0.04920383,-0.3930312,-0.6058321,0.2038706,826.0073,798.60803,801.8315,823.5897,957.3626,-0.29010009765625,0.0120849609375,0.9664306640625,6.616973876953125,4.725341796875,1.607513427734375,1,1.0,1.0,1.0,1.0,50.00
2022-11-23 20:25:29.072,1.1405818,0.28305036,0.21954918,0.9486924,0.4484484,0.19198605,0.05871101,0.5581076,0.38669196,0.39759934,0.085652344,0.58383846,0.21473508,-0.23868413,-0.13964763,0.30912653,-0.04920383,-0.3930312,-0.6058321,0.2038706,789.34064,798.60803,805.4579,803.8461,722.8571,-0.29010009765625,0.0120849609375,0.9664306640625,6.616973876953125,4.725341796875,1.607513427734375,1,1.0,1.0,1.0,1.0,50.00
2022-11-23 20:25:29.073,1.1405818,0.28305036,0.21954918,0.9486924,0.4484484,0.19198605,0.05871101,0.5581076,0.38669196,0.39759934,0.085652344,0.58383846,0.21473508,-0.23868413,-0.13964763,0.30912653,-0.04920383,-0.3930312,-0.6058321,0.2038706,778.86444,797.3993,806.26373,805.8608,572.96704,-0.29010009765625,0.0120849609375,0.9664306640625,6.616973876953125,4.725341796875,1.607513427734375,1,1.0,1.0,1.0,1.0,50.00
2022-11-23 20:25:29.073,1.1405818,0.28305036,0.21954918,0.9486924,0.4484484,0.19198605,0.05871101,0.5581076,0.38669196,0.39759934,0.085652344,0.58383846,0.21473508,-0.23868413,-0.13964763,0.30912653,-0.04920383,-0.3930312,-0.6058321,0.2038706,818.3516,800.2198,804.65204,834.87177,848.97437,-0.29010009765625,0.0120849609375,0.9664306640625,6.616973876953125,4.725341796875,1.607513427734375,1,1.0,1.0,1.0,1.0,50.00
2022-11-23 20:25:29.073,1.1405818,0.28305036,0.21954918,0.9486924,0.4484484,0.19198605,0.05871101,0.5581076,0.38669196,0.39759934,0.085652344,0.58383846,0.21473508,-0.23868413,-0.13964763,0.30912653,-0.04920383,-0.3930312,-0.6058321,0.2038706,856.63007,804.2491,803.8461,844.94507,948.49817,-0.29010009765625,0.0120849609375,0.9664306640625,6.616973876953125,4.725341796875,1.607513427734375,1,1.0,1.0,1.0,1.0,50.00
2022-11-23 20:25:29.073,1.1405818,0.28305036,0.21954918,0.9486924,0.4484484,0.19198605,0.05871101,0.5581076,0.38669196,0.39759934,0.085652344,0.58383846,0.21473508,-0.23868413,-0.13964763,0.30912653,-0.04920383,-0.3930312,-0.6058321,0.2038706,815.5311,805.8608,804.65204,822.381,701.50183,-0.29010009765625,0.0120849609375,0.9664306640625,6.616973876953125,4.725341796875,1.607513427734375,1,1.0,1.0,1.0,1.0,50.00
2022-11-23 20:25:29.074,1.1405818,0.28305036,0.21954918,0.9486924,0.4484484,0.19198605,0.05871101,0.5581076,0.38669196,0.39759934,0.085652344,0.58383846,0.21473508,-0.23868413,-0.13964763,0.30912653,-0.04920383,-0.3930312,-0.6058321,0.2038706,785.7143,808.68134,804.65204,809.4872,559.67035,-0.29010009765625,0.0120849609375,0.9664306640625,6.616973876953125,4.725341796875,1.607513427734375,1,1.0,1.0,1.0,1.0,50.00
2022-11-23 20:25:29.074,1.1405818,0.28305036,0.21954918,0.9486924,0.4484484,0.19198605,0.05871101,0.5581076,0.38669196,0.39759934,0.085652344,0.58383846,0.21473508,-0.23868413,-0.13964763,0.30912653,-0.04920383,-0.3930312,-0.6058321,0.2038706,831.6484,807.0696,798.60803,835.6777,828.8278,-0.29010009765625,0.0120849609375,0.9664306640625,6.616973876953125,4.725341796875,1.607513427734375,1,1.0,1.0,1.0,1.0,50.00
2022-11-23 20:25:29.074,1.1405818,0.28305036,0.21954918,0.9486924,0.4484484,0.19198605,0.05871101,0.5581076,0.38669196,0.39759934,0.085652344,0.58383846,0.21473508,-0.23868413,-0.13964763,0.30912653,-0.04920383,-0.3930312,-0.6058321,0.2038706,871.13556,806.26373,795.38464,858.24176,1227.326,-0.29010009765625,0.0120849609375,0.9664306640625,6.616973876953125,4.725341796875,1.607513427734375,1,1.0,1.0,1.0,1.0,50.00
2022-11-23 20:25:29.074,1.1405818,0.28305036,0.21954918,0.9486924,0.4484484,0.19198605,0.05871101,0.5581076,0.38669196,0.39759934,0.085652344,0.58383846,0.21473508,-0.23868413,-0.13964763,0.30912653,-0.04920383,-0.3930312,-0.6058321,0.2038706,834.0659,802.23444,796.99634,831.2454,972.27106,-0.29010009765625,0.0120849609375,0.9664306640625,6.616973876953125,4.725341796875,1.607513427734375,1,1.0,1.0,1.0,1.0,50.00
2022-11-23 20:25:29.074,1.1405818,0.28305036,0.21954918,0.9486924,0.4484484,0.19198605,0.05871101,0.5581076,0.38669196,0.39759934,0.085652344,0.58383846,0.21473508,-0.23868413,-0.13964763,0.30912653,-0.04920383,-0.3930312,-0.6058321,0.2038706,787.72894,803.8461,794.9817,811.9048,736.1539,-0.29010009765625,0.0120849609375,0.9664306640625,6.616973876953125,4.725341796875,1.607513427734375,1,1.0,1.0,1.0,1.0,50.00
2022-11-23 20:25:29.075,1.1405818,0.28305036,0.21954918,0.9486924,0.4484484,0.19198605,0.05871101,0.5581076,0.38669196,0.39759934,0.085652344,0.58383846,0.21473508,-0.23868413,-0.13964763,0.30912653,-0.04920383,-0.3930312,-0.6058321,0.2038706,821.5751,809.89014,797.8022,837.6923,875.9707,-0.29010009765625,0.0120849609375,0.9664306640625,6.616973876953125,4.725341796875,1.607513427734375,1,1.0,1.0,1.0,1.0,50.00
2022-11-23 20:25:29.075,1.1405818,0.28305036,0.21954918,0.9486924,0.4484484,0.19198605,0.05871101,0.5581076,0.38669196,0.39759934,0.085652344,0.58383846,0.21473508,-0.23868413,-0.13964763,0.30912653,-0.04920383,-0.3930312,-0.6058321,0.2038706,857.4359,808.68134,800.2198,864.2857,911.8315,-0.29010009765625,0.0120849609375,0.9664306640625,6.616973876953125,4.725341796875,1.607513427734375,1,1.0,1.0,1.0,1.0,50.00
2022-11-23 20:25:29.122,1.1405818,0.28305036,0.21954918,0.9486924,0.4484484,0.19198605,0.05871101,0.5581076,0.38669196,0.39759934,0.085652344,0.58383846,0.21473508,-0.23868413,-0.13964763,0.30912653,-0.04920383,-0.3930312,-0.6058321,0.2038706,840.10986,807.0696,797.8022,846.55676,793.7729,-0.26837158203125,0.017333984375,0.99285888671875,4.732818603515625,3.910369873046875,-2.27294921875,1,1.0,1.0,1.0,1.0,50.00
2022-11-23 20:25:29.122,1.1405818,0.28305036,0.21954918,0.9486924,0.4484484,0.19198605,0.05871101,0.5581076,0.38669196,0.39759934,0.085652344,0.58383846,0.21473508,-0.23868413,-0.13964763,0.30912653,-0.04920383,-0.3930312,-0.6058321,0.2038706,811.9048,811.50183,801.02563,827.2161,657.98535,-0.26837158203125,0.017333984375,0.99285888671875,4.732818603515625,3.910369873046875,-2.27294921875,1,1.0,1.0,1.0,1.0,50.00
2022-11-23 20:25:29.123,1.1405818,0.28305036,0.21954918,0.9486924,0.4484484,0.19198605,0.05871101,0.5581076,0.38669196,0.39759934,0.085652344,0.58383846,0.21473508,-0.23868413,-0.13964763,0.30912653,-0.04920383,-0.3930312,-0.6058321,0.2038706,820.7692,810.696,806.6667,836.8865,711.1722,-0.26837158203125,0.017333984375,0.99285888671875,4.732818603515625,3.910369873046875,-2.27294921875,1,1.0,1.0,1.0,1.0,50.00
2022-11-23 20:25:29.123,1.1405818,0.28305036,0.21954918,0.9486924,0.4484484,0.19198605,0.05871101,0.5581076,0.38669196,0.39759934,0.085652344,0.58383846,0.21473508,-0.23868413,-0.13964763,0.30912653,-0.04920383,-0.3930312,-0.6058321,0.2038706,863.8828,808.2784,803.0403,864.68866,945.6777,-0.26837158203125,0.017333984375,0.99285888671875,4.732818603515625,3.910369873046875,-2.27294921875,1,1.0,1.0,1.0,1.0,50.00
2022-11-23 20:25:29.123,1.1405818,0.28305036,0.21954918,0.9486924,0.4484484,0.19198605,0.05871101,0.5581076,0.38669196,0.39759934,0.085652344,0.58383846,0.21473508,-0.23868413,-0.13964763,0.30912653,-0.04920383,-0.3930312,-0.6058321,0.2038706,861.4652,810.293,802.23444,869.5238,900.54944,-0.26837158203125,0.017333984375,0.99285888671875,4.732818603515625,3.910369873046875,-2.27294921875,1,1.0,1.0,1.0,1.0,50.00
2022-11-23 20:25:29,,,,,,,,,,,,,,,,,,,,,,,,,,,,,,,,,,,,,,/muse/elements/blink
2022-11-23 20:25:29.123,1.1405818,0.28593138,0.27285203,0.9355059,0.4484484,0.18029147,0.0716034,0.57475096,0.38669196,0.39195588,0.069279246,0.5833701,0.21473508,-0.2313146,-0.1361962,0.28154036,-0.04920383,-0.43750772,-0.6081545,0.16930112,820.7692,804.65204,802.6374,836.08057,705.9341,-0.26837158203125,0.017333984375,0.99285888671875,4.732818603515625,3.910369873046875,-2.27294921875,1,1.0,1.0,1.0,1.0,50.00
2022-11-23 20:25:29.125,1.1405818,0.28593138,0.27285203,0.9355059,0.4484484,0.18029147,0.0716034,0.57475096,0.38669196,0.39195588,0.069279246,0.5833701,0.21473508,-0.2313146,-0.1361962,0.28154036,-0.04920383,-0.43750772,-0.6081545,0.16930112,807.8755,799.011,798.60803,830.0366,787.72894,-0.26837158203125,0.017333984375,0.99285888671875,4.732818603515625,3.910369873046875,-2.27294921875,1,1.0,1.0,1.0,1.0,50.00
2022-11-23 20:25:29.125,1.1405818,0.28593138,0.27285203,0.9355059,0.4484484,0.18029147,0.0716034,0.57475096,0.38669196,0.39195588,0.069279246,0.5833701,0.21473508,-0.2313146,-0.1361962,0.28154036,-0.04920383,-0.43750772,-0.6081545,0.16930112,837.28937,800.2198,796.5934,853.8095,912.6374,-0.26837158203125,0.017333984375,0.99285888671875,4.732818603515625,3.910369873046875,-2.27294921875,1,1.0,1.0,1.0,1.0,50.00
2022-11-23 20:25:29.125,1.1405818,0.28593138,0.27285203,0.9355059,0.4484484,0.18029147,0.0716034,0.57475096,0.38669196,0.39195588,0.069279246,0.5833701,0.21473508,-0.2313146,-0.1361962,0.28154036,-0.04920383,-0.43750772,-0.6081545,0.16930112,859.45056,802.23444,798.60803,859.85345,899.7436,-0.26837158203125,0.017333984375,0.99285888671875,4.732818603515625,3.910369873046875,-2.27294921875,1,1.0,1.0,1.0,1.0,50.00
2022-11-23 20:25:29.125,1.1405818,0.28593138,0.27285203,0.9355059,0.4484484,0.18029147,0.0716034,0.57475096,0.38669196,0.39195588,0.069279246,0.5833701,0.21473508,-0.2313146,-0.1361962,0.28154036,-0.04920383,-0.43750772,-0.6081545,0.16930112,831.6484,804.65204,802.6374,835.6777,740.989,-0.26837158203125,0.017333984375,0.99285888671875,4.732818603515625,3.910369873046875,-2.27294921875,1,1.0,1.0,1.0,1.0,50.00
2022-11-23 20:25:29.126,1.1405818,0.28593138,0.27285203,0.9355059,0.4484484,0.18029147,0.0716034,0.57475096,0.38669196,0.39195588,0.069279246,0.5833701,0.21473508,-0.2313146,-0.1361962,0.28154036,-0.04920383,-0.43750772,-0.6081545,0.16930112,801.8315,805.4579,803.0403,819.15753,845.7509,-0.26837158203125,0.017333984375,0.99285888671875,4.732818603515625,3.910369873046875,-2.27294921875,1,1.0,1.0,1.0,1.0,50.00
2022-11-23 20:25:29.126,1.1405818,0.28593138,0.27285203,0.9355059,0.4484484,0.18029147,0.0716034,0.57475096,0.38669196,0.39195588,0.069279246,0.5833701,0.21473508,-0.2313146,-0.1361962,0.28154036,-0.04920383,-0.43750772,-0.6081545,0.16930112,828.022,801.02563,801.8315,836.08057,896.9231,-0.26837158203125,0.017333984375,0.99285888671875,4.732818603515625,3.910369873046875,-2.27294921875,1,1.0,1.0,1.0,1.0,50.00
2022-11-23 20:25:29.172,1.1405818,0.28593138,0.27285203,0.9355059,0.4484484,0.18029147,0.0716034,0.57475096,0.38669196,0.39195588,0.069279246,0.5833701,0.21473508,-0.2313146,-0.1361962,0.28154036,-0.04920383,-0.43750772,-0.6081545,0.16930112,852.6007,800.2198,802.6374,842.1245,802.23444,-0.26873779296875,0.00390625,0.98541259765625,0.171966552734375,-1.398162841796875,-1.069183349609375,1,1.0,1.0,1.0,1.0,50.00
2022-11-23 20:25:29.173,1.1405818,0.28593138,0.27285203,0.9355059,0.4484484,0.18029147,0.0716034,0.57475096,0.38669196,0.39195588,0.069279246,0.5833701,0.21473508,-0.2313146,-0.1361962,0.28154036,-0.04920383,-0.43750772,-0.6081545,0.16930112,818.7546,802.23444,805.4579,819.15753,759.5238,-0.26873779296875,0.00390625,0.98541259765625,0.171966552734375,-1.398162841796875,-1.069183349609375,1,1.0,1.0,1.0,1.0,50.00
2022-11-23 20:25:29.173,1.1405818,0.28593138,0.27285203,0.9355059,0.4484484,0.18029147,0.0716034,0.57475096,0.38669196,0.39195588,0.069279246,0.5833701,0.21473508,-0.2313146,-0.1361962,0.28154036,-0.04920383,-0.43750772,-0.6081545,0.16930112,790.9524,803.0403,805.4579,799.81683,632.1978,-0.26873779296875,0.00390625,0.98541259765625,0.171966552734375,-1.398162841796875,-1.069183349609375,1,1.0,1.0,1.0,1.0,50.00
2022-11-23 20:25:29.173,1.1405818,0.28593138,0.27285203,0.9355059,0.4484484,0.18029147,0.0716034,0.57475096,0.38669196,0.39195588,0.069279246,0.5833701,0.21473508,-0.2313146,-0.1361962,0.28154036,-0.04920383,-0.43750772,-0.6081545,0.16930112,807.0696,801.8315,807.8755,815.12823,651.53845,-0.26873779296875,0.00390625,0.98541259765625,0.171966552734375,-1.398162841796875,-1.069183349609375,1,1.0,1.0,1.0,1.0,50.00
2022-11-23 20:25:29.174,1.1405818,0.28593138,0.27285203,0.9355059,0.4484484,0.18029147,0.0716034,0.57475096,0.38669196,0.39195588,0.069279246,0.5833701,0.21473508,-0.2313146,-0.1361962,0.28154036,-0.04920383,-0.43750772,-0.6081545,0.16930112,842.9304,801.8315,812.3077,840.10986,754.2857,-0.26873779296875,0.00390625,0.98541259765625,0.171966552734375,-1.398162841796875,-1.069183349609375,1,1.0,1.0,1.0,1.0,50.00
2022-11-23 20:25:29.174,1.1405818,0.28593138,0.27285203,0.9355059,0.4484484,0.18029147,0.0716034,0.57475096,0.38669196,0.39195588,0.069279246,0.5833701,0.21473508,-0.2313146,-0.1361962,0.28154036,-0.04920383,-0.43750772,-0.6081545,0.16930112,836.4835,802.6374,811.0989,828.4249,893.69965,-0.26873779296875,0.00390625,0.98541259765625,0.171966552734375,-1.398162841796875,-1.069183349609375,1,1.0,1.0,1.0,1.0,50.00
2022-11-23 20:25:29.174,1.1405818,0.28593138,0.27285203,0.9355059,0.4484484,0.18029147,0.0716034,0.57475096,0.38669196,0.39195588,0.069279246,0.5833701,0.21473508,-0.2313146,-0.1361962,0.28154036,-0.04920383,-0.43750772,-0.6081545,0.16930112,792.5641,803.44324,810.293,801.4286,790.9524,-0.26873779296875,0.00390625,0.98541259765625,0.171966552734375,-1.398162841796875,-1.069183349609375,1,1.0,1.0,1.0,1.0,50.00
2022-11-23 20:25:29.174,1.1405818,0.28593138,0.27285203,0.9355059,0.4484484,0.18029147,0.0716034,0.57475096,0.38669196,0.39195588,0.069279246,0.5833701,0.21473508,-0.2313146,-0.1361962,0.28154036,-0.04920383,-0.43750772,-0.6081545,0.16930112,796.5934,803.44324,813.91943,804.65204,603.5897,-0.26873779296875,0.00390625,0.98541259765625,0.171966552734375,-1.398162841796875,-1.069183349609375,1,1.0,1.0,1.0,1.0,50.00
2022-11-23 20:25:29.175,1.1405818,0.28593138,0.27285203,0.9355059,0.4484484,0.18029147,0.0716034,0.57475096,0.38669196,0.39195588,0.069279246,0.5833701,0.21473508,-0.2313146,-0.1361962,0.28154036,-0.04920383,-0.43750772,-0.6081545,0.16930112,837.6923,797.3993,807.47253,824.3956,664.0293,-0.26873779296875,0.00390625,0.98541259765625,0.171966552734375,-1.398162841796875,-1.069183349609375,1,1.0,1.0,1.0,1.0,50.00
2022-11-23 20:25:29.175,1.1405818,0.28593138,0.27285203,0.9355059,0.4484484,0.18029147,0.0716034,0.57475096,0.38669196,0.39195588,0.069279246,0.5833701,0.21473508,-0.2313146,-0.1361962,0.28154036,-0.04920383,-0.43750772,-0.6081545,0.16930112,838.49817,798.60803,798.20514,824.3956,958.97437,-0.26873779296875,0.00390625,0.98541259765625,0.171966552734375,-1.398162841796875,-1.069183349609375,1,1.0,1.0,1.0,1.0,50.00
2022-11-23 20:25:29.175,1.1405818,0.28593138,0.27285203,0.9355059,0.4484484,0.18029147,0.0716034,0.57475096,0.38669196,0.39195588,0.069279246,0.5833701,0.21473508,-0.2313146,-0.1361962,0.28154036,-0.04920383,-0.43750772,-0.6081545,0.16930112,801.8315,803.0403,803.0403,810.293,948.0952,-0.26873779296875,0.00390625,0.98541259765625,0.171966552734375,-1.398162841796875,-1.069183349609375,1,1.0,1.0,1.0,1.0,50.00
2022-11-23 20:25:29.175,1.1405818,0.28593138,0.27285203,0.9355059,0.4484484,0.18029147,0.0716034,0.57475096,0.38669196,0.39195588,0.069279246,0.5833701,0.21473508,-0.2313146,-0.1361962,0.28154036,-0.04920383,-0.43750772,-0.6081545,0.16930112,793.7729,805.4579,807.0696,800.6227,579.011,-0.26873779296875,0.00390625,0.98541259765625,0.171966552734375,-1.398162841796875,-1.069183349609375,1,1.0,1.0,1.0,1.0,50.00
2022-11-23 20:25:29.222,1.1405818,0.28593138,0.27285203,0.9355059,0.4484484,0.18029147,0.0716034,0.57475096,0.38669196,0.39195588,0.069279246,0.5833701,0.21473508,-0.2313146,-0.1361962,0.28154036,-0.04920383,-0.43750772,-0.6081545,0.16930112,825.2015,804.65204,808.2784,821.1722,689.011,-0.25872802734375,-0.0084228515625,0.98504638671875,-1.069183349609375,-2.205657958984375,-0.0299072265625,1,1.0,1.0,1.0,1.0,50.00
2022-11-23 20:25:29.223,1.1405818,0.28593138,0.27285203,0.9355059,0.4484484,0.18029147,0.0716034,0.57475096,0.38669196,0.39195588,0.069279246,0.5833701,0.21473508,-0.2313146,-0.1361962,0.28154036,-0.04920383,-0.43750772,-0.6081545,0.16930112,844.5421,807.0696,808.2784,837.6923,878.7912,-0.25872802734375,-0.0084228515625,0.98504638671875,-1.069183349609375,-2.205657958984375,-0.0299072265625,1,1.0,1.0,1.0,1.0,50.00
2022-11-23 20:25:29.223,1.1405818,0.28593138,0.27285203,0.9355059,0.4484484,0.18029147,0.0716034,0.57475096,0.38669196,0.39195588,0.069279246,0.5833701,0.21473508,-0.2313146,-0.1361962,0.28154036,-0.04920383,-0.43750772,-0.6081545,0.16930112,817.1429,811.0989,802.6374,821.978,786.52014,-0.25872802734375,-0.0084228515625,0.98504638671875,-1.069183349609375,-2.205657958984375,-0.0299072265625,1,1.0,1.0,1.0,1.0,50.00
2022-11-23 20:25:29.223,1.1405818,0.28593138,0.27285203,0.9355059,0.4484484,0.18029147,0.0716034,0.57475096,0.38669196,0.39195588,0.069279246,0.5833701,0.21473508,-0.2313146,-0.1361962,0.28154036,-0.04920383,-0.43750772,-0.6081545,0.16930112,792.5641,809.89014,803.8461,801.8315,592.71063,-0.25872802734375,-0.0084228515625,0.98504638671875,-1.069183349609375,-2.205657958984375,-0.0299072265625,1,1.0,1.0,1.0,1.0,50.00
2022-11-23 20:25:29.223,1.1405818,0.28593138,0.27285203,0.9355059,0.4484484,0.18029147,0.0716034,0.57475096,0.38669196,0.39195588,0.069279246,0.5833701,0.21473508,-0.2313146,-0.1361962,0.28154036,-0.04920383,-0.43750772,-0.6081545,0.16930112,817.9487,809.4872,807.8755,820.7692,676.52014,-0.25872802734375,-0.0084228515625,0.98504638671875,-1.069183349609375,-2.205657958984375,-0.0299072265625,1,1.0,1.0,1.0,1.0,50.00
2022-11-23 20:25:29.224,1.1405818,0.28593138,0.27285203,0.9355059,0.4484484,0.18029147,0.0716034,0.57475096,0.38669196,0.39195588,0.069279246,0.5833701,0.21473508,-0.2313146,-0.1361962,0.28154036,-0.04920383,-0.43750772,-0.6081545,0.16930112,841.31866,809.0842,809.89014,846.55676,944.0659,-0.25872802734375,-0.0084228515625,0.98504638671875,-1.069183349609375,-2.205657958984375,-0.0299072265625,1,1.0,1.0,1.0,1.0,50.00
2022-11-23 20:25:29.224,1.1405818,0.28593138,0.27285203,0.9355059,0.4484484,0.18029147,0.0716034,0.57475096,0.38669196,0.39195588,0.069279246,0.5833701,0.21473508,-0.2313146,-0.1361962,0.28154036,-0.04920383,-0.43750772,-0.6081545,0.16930112,825.6044,810.293,807.8755,826.8132,959.7802,-0.25872802734375,-0.0084228515625,0.98504638671875,-1.069183349609375,-2.205657958984375,-0.0299072265625,1,1.0,1.0,1.0,1.0,50.00
2022-11-23 20:25:29.224,1.1384084,0.28611302,0.33414063,0.94414115,0.45375577,0.17428148,0.07461075,0.60079116,0.35299182,0.3765856,0.07144936,0.58281505,0.19340722,-0.21756014,-0.12353213,0.25367314,-0.041134343,-0.47290796,-0.60631675,0.14268081,796.5934,806.26373,802.23444,802.23444,731.31866,-0.25872802734375,-0.0084228515625,0.98504638671875,-1.069183349609375,-2.205657958984375,-0.0299072265625,1,1.0,1.0,1.0,1.0,50.00
2022-11-23 20:25:29.225,1.1384084,0.28611302,0.33414063,0.94414115,0.45375577,0.17428148,0.07461075,0.60079116,0.35299182,0.3765856,0.07144936,0.58281505,0.19340722,-0.21756014,-0.12353213,0.25367314,-0.041134343,-0.47290796,-0.60631675,0.14268081,810.696,807.0696,801.02563,821.978,690.6227,-0.25872802734375,-0.0084228515625,0.98504638671875,-1.069183349609375,-2.205657958984375,-0.0299072265625,1,1.0,1.0,1.0,1.0,50.00
2022-11-23 20:25:29.225,1.1384084,0.28611302,0.33414063,0.94414115,0.45375577,0.17428148,0.07461075,0.60079116,0.35299182,0.3765856,0.07144936,0.58281505,0.19340722,-0.21756014,-0.12353213,0.25367314,-0.041134343,-0.47290796,-0.60631675,0.14268081,844.1392,813.91943,800.2198,844.1392,987.5824,-0.25872802734375,-0.0084228515625,0.98504638671875,-1.069183349609375,-2.205657958984375,-0.0299072265625,1,1.0,1.0,1.0,1.0,50.00
2022-11-23 20:25:29.226,1.1384084,0.28611302,0.33414063,0.94414115,0.45375577,0.17428148,0.07461075,0.60079116,0.35299182,0.3765856,0.07144936,0.58281505,0.19340722,-0.21756014,-0.12353213,0.25367314,-0.041134343,-0.47290796,-0.60631675,0.14268081,842.52747,815.12823,803.0403,840.9158,930.3663,-0.25872802734375,-0.0084228515625,0.98504638671875,-1.069183349609375,-2.205657958984375,-0.0299072265625,1,1.0,1.0,1.0,1.0,50.00
2022-11-23 20:25:29.226,1.1384084,0.28611302,0.33414063,0.94414115,0.45375577,0.17428148,0.07461075,0.60079116,0.35299182,0.3765856,0.07144936,0.58281505,0.19340722,-0.21756014,-0.12353213,0.25367314,-0.041134343,-0.47290796,-0.60631675,0.14268081,810.293,812.3077,805.8608,814.7253,601.1722,-0.25872802734375,-0.0084228515625,0.98504638671875,-1.069183349609375,-2.205657958984375,-0.0299072265625,1,1.0,1.0,1.0,1.0,50.00
2022-11-23 20:25:29.272,1.1384084,0.28611302,0.33414063,0.94414115,0.45375577,0.17428148,0.07461075,0.60079116,0.35299182,0.3765856,0.07144936,0.58281505,0.19340722,-0.21756014,-0.12353213,0.25367314,-0.041134343,-0.47290796,-0.60631675,0.14268081,800.2198,811.50183,803.44324,810.293,688.60803,-0.27178955078125,-0.01458740234375,0.97021484375,1.128997802734375,-2.071075439453125,1.48040771484375,1,1.0,1.0,1.0,1.0,50.00
2022-11-23 20:25:29.273,1.1384084,0.28611302,0.33414063,0.94414115,0.45375577,0.17428148,0.07461075,0.60079116,0.35299182,0.3765856,0.07144936,0.58281505,0.19340722,-0.21756014,-0.12353213,0.25367314,-0.041134343,-0.47290796,-0.60631675,0.14268081,822.7839,808.68134,807.0696,834.0659,894.90845,-0.27178955078125,-0.01458740234375,0.97021484375,1.128997802734375,-2.071075439453125,1.48040771484375,1,1.0,1.0,1.0,1.0,50.00
2022-11-23 20:25:29.273,1.1384084,0.28611302,0.33414063,0.94414115,0.45375577,0.17428148,0.07461075,0.60079116,0.35299182,0.3765856,0.07144936,0.58281505,0.19340722,-0.21756014,-0.12353213,0.25367314,-0.041134343,-0.47290796,-0.60631675,0.14268081,834.0659,809.0842,812.3077,832.8571,825.6044,-0.27178955078125,-0.01458740234375,0.97021484375,1.128997802734375,-2.071075439453125,1.48040771484375,1,1.0,1.0,1.0,1.0,50.00
2022-11-23 20:25:29.273,1.1384084,0.28611302,0.33414063,0.94414115,0.45375577,0.17428148,0.07461075,0.60079116,0.35299182,0.3765856,0.07144936,0.58281505,0.19340722,-0.21756014,-0.12353213,0.25367314,-0.041134343,-0.47290796,-0.60631675,0.14268081,808.68134,812.3077,807.47253,801.8315,677.72894,-0.27178955078125,-0.01458740234375,0.97021484375,1.128997802734375,-2.071075439453125,1.48040771484375,1,1.0,1.0,1.0,1.0,50.00
2022-11-23 20:25:29.273,1.1384084,0.28611302,0.33414063,0.94414115,0.45375577,0.17428148,0.07461075,0.60079116,0.35299182,0.3765856,0.07144936,0.58281505,0.19340722,-0.21756014,-0.12353213,0.25367314,-0.041134343,-0.47290796,-0.60631675,0.14268081,784.90845,811.50183,799.81683,776.4469,628.1685,-0.27178955078125,-0.01458740234375,0.97021484375,1.128997802734375,-2.071075439453125,1.48040771484375,1,1.0,1.0,1.0,1.0,50.00
2022-11-23 20:25:29.274,1.1384084,0.28611302,0.33414063,0.94414115,0.45375577,0.17428148,0.07461075,0.60079116,0.35299182,0.3765856,0.07144936,0.58281505,0.19340722,-0.21756014,-0.12353213,0.25367314,-0.041134343,-0.47290796,-0.60631675,0.14268081,808.68134,807.47253,799.41394,804.65204,784.10254,-0.27178955078125,-0.01458740234375,0.97021484375,1.128997802734375,-2.071075439453125,1.48040771484375,1,1.0,1.0,1.0,1.0,50.00
2022-11-23 20:25:29.274,1.1384084,0.28611302,0.33414063,0.94414115,0.45375577,0.17428148,0.07461075,0.60079116,0.35299182,0.3765856,0.07144936,0.58281505,0.19340722,-0.21756014,-0.12353213,0.25367314,-0.041134343,-0.47290796,-0.60631675,0.14268081,841.31866,811.0989,807.0696,835.6777,984.35895,-0.27178955078125,-0.01458740234375,0.97021484375,1.128997802734375,-2.071075439453125,1.48040771484375,1,1.0,1.0,1.0,1.0,50.00
2022-11-23 20:25:29.274,1.1384084,0.28611302,0.33414063,0.94414115,0.45375577,0.17428148,0.07461075,0.60079116,0.35299182,0.3765856,0.07144936,0.58281505,0.19340722,-0.21756014,-0.12353213,0.25367314,-0.041134343,-0.47290796,-0.60631675,0.14268081,819.9634,817.1429,810.293,815.9341,893.69965,-0.27178955078125,-0.01458740234375,0.97021484375,1.128997802734375,-2.071075439453125,1.48040771484375,1,1.0,1.0,1.0,1.0,50.00
2022-11-23 20:25:29.274,1.1384084,0.28611302,0.33414063,0.94414115,0.45375577,0.17428148,0.07461075,0.60079116,0.35299182,0.3765856,0.07144936,0.58281505,0.19340722,-0.21756014,-0.12353213,0.25367314,-0.041134343,-0.47290796,-0.60631675,0.14268081,778.46155,809.0842,808.68134,788.93774,799.41394,-0.27178955078125,-0.01458740234375,0.97021484375,1.128997802734375,-2.071075439453125,1.48040771484375,1,1.0,1.0,1.0,1.0,50.00
2022-11-23 20:25:29.274,1.1384084,0.28611302,0.33414063,0.94414115,0.45375577,0.17428148,0.07461075,0.60079116,0.35299182,0.3765856,0.07144936,0.58281505,0.19340722,-0.21756014,-0.12353213,0.25367314,-0.041134343,-0.47290796,-0.60631675,0.14268081,795.78754,800.6227,805.4579,798.60803,880.80585,-0.27178955078125,-0.01458740234375,0.97021484375,1.128997802734375,-2.071075439453125,1.48040771484375,1,1.0,1.0,1.0,1.0,50.00
2022-11-23 20:25:29.275,1.1384084,0.28611302,0.33414063,0.94414115,0.45375577,0.17428148,0.07461075,0.60079116,0.35299182,0.3765856,0.07144936,0.58281505,0.19340722,-0.21756014,-0.12353213,0.25367314,-0.041134343,-0.47290796,-0.60631675,0.14268081,831.2454,799.41394,807.0696,817.5458,826.4103,-0.27178955078125,-0.01458740234375,0.97021484375,1.128997802734375,-2.071075439453125,1.48040771484375,1,1.0,1.0,1.0,1.0,50.00
2022-11-23 20:25:29.275,1.1384084,0.28611302,0.33414063,0.94414115,0.45375577,0.17428148,0.07461075,0.60079116,0.35299182,0.3765856,0.07144936,0.58281505,0.19340722,-0.21756014,-0.12353213,0.25367314,-0.041134343,-0.47290796,-0.60631675,0.14268081,813.1135,801.4286,812.71063,803.44324,752.674,-0.27178955078125,-0.01458740234375,0.97021484375,1.128997802734375,-2.071075439453125,1.48040771484375,1,1.0,1.0,1.0,1.0,50.00
2022-11-23 20:25:29.299,1.1384084,0.28611302,0.33414063,0.94414115,0.45375577,0.17428148,0.07461075,0.60079116,0.35299182,0.3765856,0.07144936,0.58281505,0.19340722,-0.21756014,-0.12353213,0.25367314,-0.041134343,-0.47290796,-0.60631675,0.14268081,776.4469,800.6227,812.71063,778.86444,634.21246,-0.27178955078125,-0.01458740234375,0.97021484375,1.128997802734375,-2.071075439453125,1.48040771484375,1,1.0,1.0,1.0,1.0,50.00
2022-11-23 20:25:29.300,1.1384084,0.28611302,0.33414063,0.94414115,0.45375577,0.17428148,0.07461075,0.60079116,0.35299182,0.3765856,0.07144936,0.58281505,0.19340722,-0.21756014,-0.12353213,0.25367314,-0.041134343,-0.47290796,-0.60631675,0.14268081,778.86444,799.41394,811.0989,778.0586,667.6557,-0.27178955078125,-0.01458740234375,0.97021484375,1.128997802734375,-2.071075439453125,1.48040771484375,1,1.0,1.0,1.0,1.0,50.00
2022-11-23 20:25:29.300,1.1384084,0.28611302,0.33414063,0.94414115,0.45375577,0.17428148,0.07461075,0.60079116,0.35299182,0.3765856,0.07144936,0.58281505,0.19340722,-0.21756014,-0.12353213,0.25367314,-0.041134343,-0.47290796,-0.60631675,0.14268081,805.4579,796.5934,806.6667,801.02563,765.16486,-0.27178955078125,-0.01458740234375,0.97021484375,1.128997802734375,-2.071075439453125,1.48040771484375,1,1.0,1.0,1.0,1.0,50.00
2022-11-23 20:25:29.300,1.1384084,0.28611302,0.33414063,0.94414115,0.45375577,0.17428148,0.07461075,0.60079116,0.35299182,0.3765856,0.07144936,0.58281505,0.19340722,-0.21756014,-0.12353213,0.25367314,-0.041134343,-0.47290796,-0.60631675,0.14268081,804.65204,794.57874,801.02563,796.99634,813.1135,-0.27178955078125,-0.01458740234375,0.97021484375,1.128997802734375,-2.071075439453125,1.48040771484375,1,1.0,1.0,1.0,1.0,50.00
2022-11-23 20:25:29.300,1.1384084,0.28611302,0.33414063,0.94414115,0.45375577,0.17428148,0.07461075,0.60079116,0.35299182,0.3765856,0.07144936,0.58281505,0.19340722,-0.21756014,-0.12353213,0.25367314,-0.041134343,-0.47290796,-0.60631675,0.14268081,770.40295,793.7729,802.23444,768.3883,751.8681,-0.27178955078125,-0.01458740234375,0.97021484375,1.128997802734375,-2.071075439453125,1.48040771484375,1,1.0,1.0,1.0,1.0,50.00
2022-11-23 20:25:29.301,1.1384084,0.28611302,0.33414063,0.94414115,0.45375577,0.17428148,0.07461075,0.60079116,0.35299182,0.3765856,0.07144936,0.58281505,0.19340722,-0.21756014,-0.12353213,0.25367314,-0.041134343,-0.47290796,-0.60631675,0.14268081,761.53845,796.5934,805.8608,771.6117,702.3077,-0.27178955078125,-0.01458740234375,0.97021484375,1.128997802734375,-2.071075439453125,1.48040771484375,1,1.0,1.0,1.0,1.0,50.00
2022-11-23 20:25:29.301,1.1384084,0.28611302,0.33414063,0.94414115,0.45375577,0.17428148,0.07461075,0.60079116,0.35299182,0.3765856,0.07144936,0.58281505,0.19340722,-0.21756014,-0.12353213,0.25367314,-0.041134343,-0.47290796,-0.60631675,0.14268081,800.2198,800.6227,805.8608,802.23444,790.14655,-0.27178955078125,-0.01458740234375,0.97021484375,1.128997802734375,-2.071075439453125,1.48040771484375,1,1.0,1.0,1.0,1.0,50.00
2022-11-23 20:25:29.301,1.1384084,0.28611302,0.33414063,0.94414115,0.45375577,0.17428148,0.07461075,0.60079116,0.35299182,0.3765856,0.07144936,0.58281505,0.19340722,-0.21756014,-0.12353213,0.25367314,-0.041134343,-0.47290796,-0.60631675,0.14268081,810.696,801.8315,801.8315,806.26373,855.42126,-0.27178955078125,-0.01458740234375,0.97021484375,1.128997802734375,-2.071075439453125,1.48040771484375,1,1.0,1.0,1.0,1.0,50.00
2022-11-23 20:25:29.302,1.1384084,0.28611302,0.33414063,0.94414115,0.45375577,0.17428148,0.07461075,0.60079116,0.35299182,0.3765856,0.07144936,0.58281505,0.19340722,-0.21756014,-0.12353213,0.25367314,-0.041134343,-0.47290796,-0.60631675,0.14268081,774.83514,799.41394,797.8022,784.90845,925.9341,-0.27178955078125,-0.01458740234375,0.97021484375,1.128997802734375,-2.071075439453125,1.48040771484375,1,1.0,1.0,1.0,1.0,50.00
2022-11-23 20:25:29.302,1.1571094,0.2863057,0.38980725,0.96703434,0.4731724,0.18613483,0.07338721,0.6354159,0.32694417,0.36297092,0.07144936,0.58281505,0.1763222,-0.20566237,-0.103920765,0.23136309,-0.04209286,-0.48932222,-0.59907216,0.1359887,757.1062,798.20514,801.02563,772.8205,759.5238,-0.27178955078125,-0.01458740234375,0.97021484375,1.128997802734375,-2.071075439453125,1.48040771484375,1,1.0,1.0,1.0,1.0,50.00
2022-11-23 20:25:29.303,1.1571094,0.2863057,0.38980725,0.96703434,0.4731724,0.18613483,0.07338721,0.6354159,0.32694417,0.36297092,0.07144936,0.58281505,0.1763222,-0.20566237,-0.103920765,0.23136309,-0.04209286,-0.48932222,-0.59907216,0.1359887,795.38464,803.0403,803.8461,789.7436,694.2491,-0.27178955078125,-0.01458740234375,0.97021484375,1.128997802734375,-2.071075439453125,1.48040771484375,1,1.0,1.0,1.0,1.0,50.00
2022-11-23 20:25:29.303,1.1571094,0.2863057,0.38980725,0.96703434,0.4731724,0.18613483,0.07338721,0.6354159,0.32694417,0.36297092,0.07144936,0.58281505,0.1763222,-0.20566237,-0.103920765,0.23136309,-0.04209286,-0.48932222,-0.59907216,0.1359887,823.9927,803.44324,801.02563,813.91943,895.7143,-0.27178955078125,-0.01458740234375,0.97021484375,1.128997802734375,-2.071075439453125,1.48040771484375,1,1.0,1.0,1.0,1.0,50.00
2022-11-23 20:25:29.347,1.1571094,0.2863057,0.38980725,0.96703434,0.4731724,0.18613483,0.07338721,0.6354159,0.32694417,0.36297092,0.07144936,0.58281505,0.1763222,-0.20566237,-0.103920765,0.23136309,-0.04209286,-0.48932222,-0.59907216,0.1359887,798.20514,804.65204,802.6374,799.011,799.011,-0.29266357421875,-0.01336669921875,0.97576904296875,4.523468017578125,2.452392578125,-0.829925537109375,1,1.0,1.0,1.0,1.0,50.00
2022-11-23 20:25:29.347,1.1571094,0.2863057,0.38980725,0.96703434,0.4731724,0.18613483,0.07338721,0.6354159,0.32694417,0.36297092,0.07144936,0.58281505,0.1763222,-0.20566237,-0.103920765,0.23136309,-0.04209286,-0.48932222,-0.59907216,0.1359887,770.0,807.47253,802.6374,772.01465,570.14655,-0.29266357421875,-0.01336669921875,0.97576904296875,4.523468017578125,2.452392578125,-0.829925537109375,1,1.0,1.0,1.0,1.0,50.00
2022-11-23 20:25:29.348,1.1571094,0.2863057,0.38980725,0.96703434,0.4731724,0.18613483,0.07338721,0.6354159,0.32694417,0.36297092,0.07144936,0.58281505,0.1763222,-0.20566237,-0.103920765,0.23136309,-0.04209286,-0.48932222,-0.59907216,0.1359887,786.1172,803.0403,799.81683,784.90845,640.65936,-0.29266357421875,-0.01336669921875,0.97576904296875,4.523468017578125,2.452392578125,-0.829925537109375,1,1.0,1.0,1.0,1.0,50.00
2022-11-23 20:25:29.348,1.1571094,0.2863057,0.38980725,0.96703434,0.4731724,0.18613483,0.07338721,0.6354159,0.32694417,0.36297092,0.07144936,0.58281505,0.1763222,-0.20566237,-0.103920765,0.23136309,-0.04209286,-0.48932222,-0.59907216,0.1359887,815.5311,799.81683,800.6227,809.4872,823.9927,-0.29266357421875,-0.01336669921875,0.97576904296875,4.523468017578125,2.452392578125,-0.829925537109375,1,1.0,1.0,1.0,1.0,50.00
2022-11-23 20:25:29.348,1.1571094,0.2863057,0.38980725,0.96703434,0.4731724,0.18613483,0.07338721,0.6354159,0.32694417,0.36297092,0.07144936,0.58281505,0.1763222,-0.20566237,-0.103920765,0.23136309,-0.04209286,-0.48932222,-0.59907216,0.1359887,806.6667,801.4286,801.02563,803.8461,839.304,-0.29266357421875,-0.01336669921875,0.97576904296875,4.523468017578125,2.452392578125,-0.829925537109375,1,1.0,1.0,1.0,1.0,50.00
2022-11-23 20:25:29.348,1.1571094,0.2863057,0.38980725,0.96703434,0.4731724,0.18613483,0.07338721,0.6354159,0.32694417,0.36297092,0.07144936,0.58281505,0.1763222,-0.20566237,-0.103920765,0.23136309,-0.04209286,-0.48932222,-0.59907216,0.1359887,783.2967,806.6667,801.02563,783.2967,690.6227,-0.29266357421875,-0.01336669921875,0.97576904296875,4.523468017578125,2.452392578125,-0.829925537109375,1,1.0,1.0,1.0,1.0,50.00
2022-11-23 20:25:29.349,1.1571094,0.2863057,0.38980725,0.96703434,0.4731724,0.18613483,0.07338721,0.6354159,0.32694417,0.36297092,0.07144936,0.58281505,0.1763222,-0.20566237,-0.103920765,0.23136309,-0.04209286,-0.48932222,-0.59907216,0.1359887,792.96704,812.3077,800.6227,784.5055,641.8681,-0.29266357421875,-0.01336669921875,0.97576904296875,4.523468017578125,2.452392578125,-0.829925537109375,1,1.0,1.0,1.0,1.0,50.00
2022-11-23 20:25:29.349,1.1571094,0.2863057,0.38980725,0.96703434,0.4731724,0.18613483,0.07338721,0.6354159,0.32694417,0.36297092,0.07144936,0.58281505,0.1763222,-0.20566237,-0.103920765,0.23136309,-0.04209286,-0.48932222,-0.59907216,0.1359887,821.1722,809.0842,803.0403,817.1429,1020.2198,-0.29266357421875,-0.01336669921875,0.97576904296875,4.523468017578125,2.452392578125,-0.829925537109375,1,1.0,1.0,1.0,1.0,50.00
2022-11-23 20:25:29.349,1.1571094,0.2863057,0.38980725,0.96703434,0.4731724,0.18613483,0.07338721,0.6354159,0.32694417,0.36297092,0.07144936,0.58281505,0.1763222,-0.20566237,-0.103920765,0.23136309,-0.04209286,-0.48932222,-0.59907216,0.1359887,821.5751,807.47253,800.6227,821.978,1241.0256,-0.29266357421875,-0.01336669921875,0.97576904296875,4.523468017578125,2.452392578125,-0.829925537109375,1,1.0,1.0,1.0,1.0,50.00
2022-11-23 20:25:29.349,1.1571094,0.2863057,0.38980725,0.96703434,0.4731724,0.18613483,0.07338721,0.6354159,0.32694417,0.36297092,0.07144936,0.58281505,0.1763222,-0.20566237,-0.103920765,0.23136309,-0.04209286,-0.48932222,-0.59907216,0.1359887,789.7436,806.26373,798.20514,791.75824,845.34796,-0.29266357421875,-0.01336669921875,0.97576904296875,4.523468017578125,2.452392578125,-0.829925537109375,1,1.0,1.0,1.0,1.0,50.00
2022-11-23 20:25:29.350,1.1571094,0.2863057,0.38980725,0.96703434,0.4731724,0.18613483,0.07338721,0.6354159,0.32694417,0.36297092,0.07144936,0.58281505,0.1763222,-0.20566237,-0.103920765,0.23136309,-0.04209286,-0.48932222,-0.59907216,0.1359887,782.8938,807.47253,799.011,785.7143,587.0696,-0.29266357421875,-0.01336669921875,0.97576904296875,4.523468017578125,2.452392578125,-0.829925537109375,1,1.0,1.0,1.0,1.0,50.00
2022-11-23 20:25:29.350,1.1571094,0.2863057,0.38980725,0.96703434,0.4731724,0.18613483,0.07338721,0.6354159,0.32694417,0.36297092,0.07144936,0.58281505,0.1763222,-0.20566237,-0.103920765,0.23136309,-0.04209286,-0.48932222,-0.59907216,0.1359887,816.337,811.0989,801.8315,811.9048,752.27106,-0.29266357421875,-0.01336669921875,0.97576904296875,4.523468017578125,2.452392578125,-0.829925537109375,1,1.0,1.0,1.0,1.0,50.00
2022-11-23 20:25:29.397,1.1571094,0.2863057,0.38980725,0.96703434,0.4731724,0.18613483,0.07338721,0.6354159,0.32694417,0.36297092,0.07144936,0.58281505,0.1763222,-0.20566237,-0.103920765,0.23136309,-0.04209286,-0.48932222,-0.59907216,0.1359887,834.87177,806.26373,799.81683,826.0073,1003.69965,-0.29522705078125,-0.00518798828125,0.9755859375,5.345916748046875,2.04864501953125,-1.89910888671875,1,1.0,1.0,1.0,1.0,50.00
2022-11-23 20:25:29.397,1.1571094,0.2863057,0.38980725,0.96703434,0.4731724,0.18613483,0.07338721,0.6354159,0.32694417,0.36297092,0.07144936,0.58281505,0.1763222,-0.20566237,-0.103920765,0.23136309,-0.04209286,-0.48932222,-0.59907216,0.1359887,807.0696,807.8755,799.011,801.4286,874.7619,-0.29522705078125,-0.00518798828125,0.9755859375,5.345916748046875,2.04864501953125,-1.89910888671875,1,1.0,1.0,1.0,1.0,50.00
2022-11-23 20:25:29.397,1.1571094,0.2863057,0.38980725,0.96703434,0.4731724,0.18613483,0.07338721,0.6354159,0.32694417,0.36297092,0.07144936,0.58281505,0.1763222,-0.20566237,-0.103920765,0.23136309,-0.04209286,-0.48932222,-0.59907216,0.1359887,787.72894,810.696,802.6374,784.10254,610.84247,-0.29522705078125,-0.00518798828125,0.9755859375,5.345916748046875,2.04864501953125,-1.89910888671875,1,1.0,1.0,1.0,1.0,50.00
2022-11-23 20:25:29.398,1.1571094,0.2863057,0.38980725,0.96703434,0.4731724,0.18613483,0.07338721,0.6354159,0.32694417,0.36297092,0.07144936,0.58281505,0.1763222,-0.20566237,-0.103920765,0.23136309,-0.04209286,-0.48932222,-0.59907216,0.1359887,807.8755,813.5165,803.0403,796.99634,711.5751,-0.29522705078125,-0.00518798828125,0.9755859375,5.345916748046875,2.04864501953125,-1.89910888671875,1,1.0,1.0,1.0,1.0,50.00
2022-11-23 20:25:29.398,1.1571094,0.2863057,0.38980725,0.96703434,0.4731724,0.18613483,0.07338721,0.6354159,0.32694417,0.36297092,0.07144936,0.58281505,0.1763222,-0.20566237,-0.103920765,0.23136309,-0.04209286,-0.48932222,-0.59907216,0.1359887,836.08057,813.5165,803.44324,812.3077,846.1539,-0.29522705078125,-0.00518798828125,0.9755859375,5.345916748046875,2.04864501953125,-1.89910888671875,1,1.0,1.0,1.0,1.0,50.00
2022-11-23 20:25:29.398,1.1571094,0.2863057,0.38980725,0.96703434,0.4731724,0.18613483,0.07338721,0.6354159,0.32694417,0.36297092,0.07144936,0.58281505,0.1763222,-0.20566237,-0.103920765,0.23136309,-0.04209286,-0.48932222,-0.59907216,0.1359887,816.7399,807.8755,806.26373,805.4579,740.989,-0.29522705078125,-0.00518798828125,0.9755859375,5.345916748046875,2.04864501953125,-1.89910888671875,1,1.0,1.0,1.0,1.0,50.00
2022-11-23 20:25:29.399,1.1571094,0.2863057,0.38980725,0.96703434,0.4731724,0.18613483,0.07338721,0.6354159,0.32694417,0.36297092,0.07144936,0.58281505,0.1763222,-0.20566237,-0.103920765,0.23136309,-0.04209286,-0.48932222,-0.59907216,0.1359887,780.07324,807.0696,808.68134,793.36993,647.50916,-0.29522705078125,-0.00518798828125,0.9755859375,5.345916748046875,2.04864501953125,-1.89910888671875,1,1.0,1.0,1.0,1.0,50.00
2022-11-23 20:25:29.399,1.1571094,0.2863057,0.38980725,0.96703434,0.4731724,0.18613483,0.07338721,0.6354159,0.32694417,0.36297092,0.07144936,0.58281505,0.1763222,-0.20566237,-0.103920765,0.23136309,-0.04209286,-0.48932222,-0.59907216,0.1359887,789.7436,805.4579,808.68134,808.2784,864.68866,-0.29522705078125,-0.00518798828125,0.9755859375,5.345916748046875,2.04864501953125,-1.89910888671875,1,1.0,1.0,1.0,1.0,50.00
2022-11-23 20:25:29.399,1.1571094,0.2863057,0.38980725,0.96703434,0.4731724,0.18613483,0.07338721,0.6354159,0.32694417,0.36297092,0.07144936,0.58281505,0.1763222,-0.20566237,-0.103920765,0.23136309,-0.04209286,-0.48932222,-0.59907216,0.1359887,829.2308,801.4286,806.6667,825.2015,966.2271,-0.29522705078125,-0.00518798828125,0.9755859375,5.345916748046875,2.04864501953125,-1.89910888671875,1,1.0,1.0,1.0,1.0,50.00
2022-11-23 20:25:29.399,1.1571094,0.2863057,0.38980725,0.96703434,0.4731724,0.18613483,0.07338721,0.6354159,0.32694417,0.36297092,0.07144936,0.58281505,0.1763222,-0.20566237,-0.103920765,0.23136309,-0.04209286,-0.48932222,-0.59907216,0.1359887,817.9487,803.8461,809.4872,810.293,788.1319,-0.29522705078125,-0.00518798828125,0.9755859375,5.345916748046875,2.04864501953125,-1.89910888671875,1,1.0,1.0,1.0,1.0,50.00
2022-11-23 20:25:29.400,1.1571094,0.2863057,0.38980725,0.96703434,0.4731724,0.18613483,0.07338721,0.6354159,0.32694417,0.36297092,0.07144936,0.58281505,0.1763222,-0.20566237,-0.103920765,0.23136309,-0.04209286,-0.48932222,-0.59907216,0.1359887,779.67035,799.41394,807.47253,791.75824,651.13556,-0.29522705078125,-0.00518798828125,0.9755859375,5.345916748046875,2.04864501953125,-1.89910888671875,1,1.0,1.0,1.0,1.0,50.00
2022-11-23 20:25:29.400,1.1919403,0.29017752,0.43581116,0.9910191,0.49965382,0.21822323,0.07475058,0.67322886,0.3186771,0.36996594,0.07144936,0.58281505,0.16699773,-0.20197873,-0.08300297,0.21503629,-0.05118175,-0.48780578,-0.5888876,0.14544256,786.52014,798.60803,804.65204,798.20514,748.6447,-0.29522705078125,-0.00518798828125,0.9755859375,5.345916748046875,2.04864501953125,-1.89910888671875,1,1.0,1.0,1.0,1.0,50.00
2022-11-23 20:25:29.447,1.1919403,0.29017752,0.43581116,0.9910191,0.49965382,0.21822323,0.07475058,0.67322886,0.3186771,0.36996594,0.07144936,0.58281505,0.16699773,-0.20197873,-0.08300297,0.21503629,-0.05118175,-0.48780578,-0.5888876,0.14544256,803.44324,800.2198,805.8608,794.9817,859.0476,-0.2926025390625,4.2724609375E-4,0.968505859375,5.360870361328125,0.545806884765625,-1.6448974609375,1,1.0,1.0,1.0,1.0,50.00
2022-11-23 20:25:29.448,1.1919403,0.29017752,0.43581116,0.9910191,0.49965382,0.21822323,0.07475058,0.67322886,0.3186771,0.36996594,0.07144936,0.58281505,0.16699773,-0.20197873,-0.08300297,0.21503629,-0.05118175,-0.48780578,-0.5888876,0.14544256,803.0403,801.4286,800.6227,783.69965,858.24176,-0.2926025390625,4.2724609375E-4,0.968505859375,5.360870361328125,0.545806884765625,-1.6448974609375,1,1.0,1.0,1.0,1.0,50.00
2022-11-23 20:25:29.448,1.1919403,0.29017752,0.43581116,0.9910191,0.49965382,0.21822323,0.07475058,0.67322886,0.3186771,0.36996594,0.07144936,0.58281505,0.16699773,-0.20197873,-0.08300297,0.21503629,-0.05118175,-0.48780578,-0.5888876,0.14544256,775.2381,803.44324,803.44324,773.6264,768.3883,-0.2926025390625,4.2724609375E-4,0.968505859375,5.360870361328125,0.545806884765625,-1.6448974609375,1,1.0,1.0,1.0,1.0,50.00
2022-11-23 20:25:29.448,1.1919403,0.29017752,0.43581116,0.9910191,0.49965382,0.21822323,0.07475058,0.67322886,0.3186771,0.36996594,0.07144936,0.58281505,0.16699773,-0.20197873,-0.08300297,0.21503629,-0.05118175,-0.48780578,-0.5888876,0.14544256,759.12085,800.6227,809.0842,775.2381,668.0586,-0.2926025390625,4.2724609375E-4,0.968505859375,5.360870361328125,0.545806884765625,-1.6448974609375,1,1.0,1.0,1.0,1.0,50.00
2022-11-23 20:25:29.449,1.1919403,0.29017752,0.43581116,0.9910191,0.49965382,0.21822323,0.07475058,0.67322886,0.3186771,0.36996594,0.07144936,0.58281505,0.16699773,-0.20197873,-0.08300297,0.21503629,-0.05118175,-0.48780578,-0.5888876,0.14544256,791.3553,799.011,812.3077,799.41394,783.69965,-0.2926025390625,4.2724609375E-4,0.968505859375,5.360870361328125,0.545806884765625,-1.6448974609375,1,1.0,1.0,1.0,1.0,50.00
2022-11-23 20:25:29.449,1.1919403,0.29017752,0.43581116,0.9910191,0.49965382,0.21822323,0.07475058,0.67322886,0.3186771,0.36996594,0.07144936,0.58281505,0.16699773,-0.20197873,-0.08300297,0.21503629,-0.05118175,-0.48780578,-0.5888876,0.14544256,816.7399,799.81683,812.71063,815.12823,941.2454,-0.2926025390625,4.2724609375E-4,0.968505859375,5.360870361328125,0.545806884765625,-1.6448974609375,1,1.0,1.0,1.0,1.0,50.00
2022-11-23 20:25:29.449,1.1919403,0.29017752,0.43581116,0.9910191,0.49965382,0.21822323,0.07475058,0.67322886,0.3186771,0.36996594,0.07144936,0.58281505,0.16699773,-0.20197873,-0.08300297,0.21503629,-0.05118175,-0.48780578,-0.5888876,0.14544256,791.75824,802.6374,808.2784,796.1905,979.12085,-0.2926025390625,4.2724609375E-4,0.968505859375,5.360870361328125,0.545806884765625,-1.6448974609375,1,1.0,1.0,1.0,1.0,50.00
2022-11-23 20:25:29.449,1.1919403,0.29017752,0.43581116,0.9910191,0.49965382,0.21822323,0.07475058,0.67322886,0.3186771,0.36996594,0.07144936,0.58281505,0.16699773,-0.20197873,-0.08300297,0.21503629,-0.05118175,-0.48780578,-0.5888876,0.14544256,764.7619,801.4286,807.8755,782.49084,917.47253,-0.2926025390625,4.2724609375E-4,0.968505859375,5.360870361328125,0.545806884765625,-1.6448974609375,1,1.0,1.0,1.0,1.0,50.00
2022-11-23 20:25:29.449,1.1919403,0.29017752,0.43581116,0.9910191,0.49965382,0.21822323,0.07475058,0.67322886,0.3186771,0.36996594,0.07144936,0.58281505,0.16699773,-0.20197873,-0.08300297,0.21503629,-0.05118175,-0.48780578,-0.5888876,0.14544256,786.52014,800.6227,807.0696,794.57874,745.42126,-0.2926025390625,4.2724609375E-4,0.968505859375,5.360870361328125,0.545806884765625,-1.6448974609375,1,1.0,1.0,1.0,1.0,50.00
2022-11-23 20:25:29.450,1.1919403,0.29017752,0.43581116,0.9910191,0.49965382,0.21822323,0.07475058,0.67322886,0.3186771,0.36996594,0.07144936,0.58281505,0.16699773,-0.20197873,-0.08300297,0.21503629,-0.05118175,-0.48780578,-0.5888876,0.14544256,823.9927,804.2491,807.8755,809.0842,846.1539,-0.2926025390625,4.2724609375E-4,0.968505859375,5.360870361328125,0.545806884765625,-1.6448974609375,1,1.0,1.0,1.0,1.0,50.00
2022-11-23 20:25:29.450,1.1919403,0.29017752,0.43581116,0.9910191,0.49965382,0.21822323,0.07475058,0.67322886,0.3186771,0.36996594,0.07144936,0.58281505,0.16699773,-0.20197873,-0.08300297,0.21503629,-0.05118175,-0.48780578,-0.5888876,0.14544256,807.8755,810.293,809.4872,805.8608,873.95605,-0.2926025390625,4.2724609375E-4,0.968505859375,5.360870361328125,0.545806884765625,-1.6448974609375,1,1.0,1.0,1.0,1.0,50.00
2022-11-23 20:25:29.450,1.1919403,0.29017752,0.43581116,0.9910191,0.49965382,0.21822323,0.07475058,0.67322886,0.3186771,0.36996594,0.07144936,0.58281505,0.16699773,-0.20197873,-0.08300297,0.21503629,-0.05118175,-0.48780578,-0.5888876,0.14544256,778.86444,811.9048,811.50183,794.17584,662.01465,-0.2926025390625,4.2724609375E-4,0.968505859375,5.360870361328125,0.545806884765625,-1.6448974609375,1,1.0,1.0,1.0,1.0,50.00
2022-11-23 20:25:29.497,1.1919403,0.29017752,0.43581116,0.9910191,0.49965382,0.21822323,0.07475058,0.67322886,0.3186771,0.36996594,0.07144936,0.58281505,0.16699773,-0.20197873,-0.08300297,0.21503629,-0.05118175,-0.48780578,-0.5888876,0.14544256,788.1319,807.8755,812.3077,802.6374,654.35895,-0.27911376953125,-7.32421875E-4,0.98138427734375,4.964599609375,-3.4991455078125,-1.577606201171875,1,1.0,1.0,1.0,1.0,50.00
2022-11-23 20:25:29.498,1.1919403,0.29017752,0.43581116,0.9910191,0.49965382,0.21822323,0.07475058,0.67322886,0.3186771,0.36996594,0.07144936,0.58281505,0.16699773,-0.20197873,-0.08300297,0.21503629,-0.05118175,-0.48780578,-0.5888876,0.14544256,817.5458,804.65204,809.89014,823.1868,859.85345,-0.27911376953125,-7.32421875E-4,0.98138427734375,4.964599609375,-3.4991455078125,-1.577606201171875,1,1.0,1.0,1.0,1.0,50.00
2022-11-23 20:25:29.498,1.1919403,0.29017752,0.43581116,0.9910191,0.49965382,0.21822323,0.07475058,0.67322886,0.3186771,0.36996594,0.07144936,0.58281505,0.16699773,-0.20197873,-0.08300297,0.21503629,-0.05118175,-0.48780578,-0.5888876,0.14544256,821.978,801.4286,807.47253,821.1722,927.5458,-0.27911376953125,-7.32421875E-4,0.98138427734375,4.964599609375,-3.4991455078125,-1.577606201171875,1,1.0,1.0,1.0,1.0,50.00
2022-11-23 20:25:29.498,1.1919403,0.29017752,0.43581116,0.9910191,0.49965382,0.21822323,0.07475058,0.67322886,0.3186771,0.36996594,0.07144936,0.58281505,0.16699773,-0.20197873,-0.08300297,0.21503629,-0.05118175,-0.48780578,-0.5888876,0.14544256,783.2967,802.6374,801.8315,799.81683,746.63007,-0.27911376953125,-7.32421875E-4,0.98138427734375,4.964599609375,-3.4991455078125,-1.577606201171875,1,1.0,1.0,1.0,1.0,50.00
2022-11-23 20:25:29.498,1.1919403,0.29017752,0.43581116,0.9910191,0.49965382,0.21822323,0.07475058,0.67322886,0.3186771,0.36996594,0.07144936,0.58281505,0.16699773,-0.20197873,-0.08300297,0.21503629,-0.05118175,-0.48780578,-0.5888876,0.14544256,775.2381,801.8315,803.0403,795.78754,618.49817,-0.27911376953125,-7.32421875E-4,0.98138427734375,4.964599609375,-3.4991455078125,-1.577606201171875,1,1.0,1.0,1.0,1.0,50.00
2022-11-23 20:25:29.499,1.1919403,0.29017752,0.43581116,0.9910191,0.49965382,0.21822323,0.07475058,0.67322886,0.3186771,0.36996594,0.07144936,0.58281505,0.16699773,-0.20197873,-0.08300297,0.21503629,-0.05118175,-0.48780578,-0.5888876,0.14544256,818.3516,800.2198,810.696,821.5751,805.05493,-0.27911376953125,-7.32421875E-4,0.98138427734375,4.964599609375,-3.4991455078125,-1.577606201171875,1,1.0,1.0,1.0,1.0,50.00
2022-11-23 20:25:29.499,1.1919403,0.29017752,0.43581116,0.9910191,0.49965382,0.21822323,0.07475058,0.67322886,0.3186771,0.36996594,0.07144936,0.58281505,0.16699773,-0.20197873,-0.08300297,0.21503629,-0.05118175,-0.48780578,-0.5888876,0.14544256,835.6777,807.0696,813.1135,832.4542,1089.1208,-0.27911376953125,-7.32421875E-4,0.98138427734375,4.964599609375,-3.4991455078125,-1.577606201171875,1,1.0,1.0,1.0,1.0,50.00
2022-11-23 20:25:29.499,1.1919403,0.29017752,0.43581116,0.9910191,0.49965382,0.21822323,0.07475058,0.67322886,0.3186771,0.36996594,0.07144936,0.58281505,0.16699773,-0.20197873,-0.08300297,0.21503629,-0.05118175,-0.48780578,-0.5888876,0.14544256,798.60803,805.4579,811.9048,807.47253,912.23444,-0.27911376953125,-7.32421875E-4,0.98138427734375,4.964599609375,-3.4991455078125,-1.577606201171875,1,1.0,1.0,1.0,1.0,50.00
2022-11-23 20:25:29.499,1.1919403,0.29017752,0.43581116,0.9910191,0.49965382,0.21822323,0.07475058,0.67322886,0.3186771,0.36996594,0.07144936,0.58281505,0.16699773,-0.20197873,-0.08300297,0.21503629,-0.05118175,-0.48780578,-0.5888876,0.14544256,775.64105,800.6227,813.91943,792.5641,562.49084,-0.27911376953125,-7.32421875E-4,0.98138427734375,4.964599609375,-3.4991455078125,-1.577606201171875,1,1.0,1.0,1.0,1.0,50.00
2022-11-23 20:25:29.500,1.1919403,0.29017752,0.43581116,0.9910191,0.49965382,0.21822323,0.07475058,0.67322886,0.3186771,0.36996594,0.07144936,0.58281505,0.16699773,-0.20197873,-0.08300297,0.21503629,-0.05118175,-0.48780578,-0.5888876,0.14544256,807.47253,803.0403,811.50183,810.293,707.5458,-0.27911376953125,-7.32421875E-4,0.98138427734375,4.964599609375,-3.4991455078125,-1.577606201171875,1,1.0,1.0,1.0,1.0,50.00
2022-11-23 20:25:29.500,1.1919403,0.29017752,0.43581116,0.9910191,0.49965382,0.21822323,0.07475058,0.67322886,0.3186771,0.36996594,0.07144936,0.58281505,0.16699773,-0.20197873,-0.08300297,0.21503629,-0.05118175,-0.48780578,-0.5888876,0.14544256,838.49817,801.4286,811.50183,832.4542,961.39197,-0.27911376953125,-7.32421875E-4,0.98138427734375,4.964599609375,-3.4991455078125,-1.577606201171875,1,1.0,1.0,1.0,1.0,50.00
2022-11-23 20:25:29.500,1.1919403,0.29017752,0.43581116,0.9910191,0.49965382,0.21822323,0.07475058,0.67322886,0.3186771,0.36996594,0.07144936,0.58281505,0.16699773,-0.20197873,-0.08300297,0.21503629,-0.05118175,-0.48780578,-0.5888876,0.14544256,811.9048,803.8461,813.5165,821.1722,784.90845,-0.27911376953125,-7.32421875E-4,0.98138427734375,4.964599609375,-3.4991455078125,-1.577606201171875,1,1.0,1.0,1.0,1.0,50.00
2022-11-23 20:25:29.547,1.1919403,0.29017752,0.43581116,0.9910191,0.49965382,0.21822323,0.07475058,0.67322886,0.3186771,0.36996594,0.07144936,0.58281505,0.16699773,-0.20197873,-0.08300297,0.21503629,-0.05118175,-0.48780578,-0.5888876,0.14544256,780.4762,805.4579,811.9048,794.9817,607.619,-0.27911376953125,-7.32421875E-4,0.98138427734375,4.964599609375,-3.4991455078125,-1.577606201171875,1,1.0,1.0,1.0,1.0,50.00
2022-11-23 20:25:29.547,1.2347784,0.29393703,0.46385127,1.0066781,0.52976984,0.26204428,0.07997757,0.7075322,0.31771907,0.4034787,0.07144936,0.58281505,0.16382967,-0.20629199,-0.06533062,0.20262472,-0.06509567,-0.4769135,-0.57873005,0.15528868,802.6374,802.23444,810.293,804.2491,709.9634,-0.27911376953125,-7.32421875E-4,0.98138427734375,4.964599609375,-3.4991455078125,-1.577606201171875,1,1.0,1.0,1.0,1.0,50.00
2022-11-23 20:25:29.549,1.2347784,0.29393703,0.46385127,1.0066781,0.52976984,0.26204428,0.07997757,0.7075322,0.31771907,0.4034787,0.07144936,0.58281505,0.16382967,-0.20629199,-0.06533062,0.20262472,-0.06509567,-0.4769135,-0.57873005,0.15528868,836.08057,803.44324,808.2784,826.8132,860.65936,-0.27911376953125,-7.32421875E-4,0.98138427734375,4.964599609375,-3.4991455078125,-1.577606201171875,1,1.0,1.0,1.0,1.0,50.00
2022-11-23 20:25:29.549,1.2347784,0.29393703,0.46385127,1.0066781,0.52976984,0.26204428,0.07997757,0.7075322,0.31771907,0.4034787,0.07144936,0.58281505,0.16382967,-0.20629199,-0.06533062,0.20262472,-0.06509567,-0.4769135,-0.57873005,0.15528868,817.5458,802.6374,804.2491,809.4872,892.8938,-0.27911376953125,-7.32421875E-4,0.98138427734375,4.964599609375,-3.4991455078125,-1.577606201171875,1,1.0,1.0,1.0,1.0,50.00
2022-11-23 20:25:29.549,1.2347784,0.29393703,0.46385127,1.0066781,0.52976984,0.26204428,0.07997757,0.7075322,0.31771907,0.4034787,0.07144936,0.58281505,0.16382967,-0.20629199,-0.06533062,0.20262472,-0.06509567,-0.4769135,-0.57873005,0.15528868,784.90845,796.99634,801.8315,787.72894,680.9524,-0.27911376953125,-7.32421875E-4,0.98138427734375,4.964599609375,-3.4991455078125,-1.577606201171875,1,1.0,1.0,1.0,1.0,50.00
2022-11-23 20:25:29.549,1.2347784,0.29393703,0.46385127,1.0066781,0.52976984,0.26204428,0.07997757,0.7075322,0.31771907,0.4034787,0.07144936,0.58281505,0.16382967,-0.20629199,-0.06533062,0.20262472,-0.06509567,-0.4769135,-0.57873005,0.15528868,793.7729,798.60803,805.8608,802.6374,838.49817,-0.27911376953125,-7.32421875E-4,0.98138427734375,4.964599609375,-3.4991455078125,-1.577606201171875,1,1.0,1.0,1.0,1.0,50.00
2022-11-23 20:25:29.550,1.2347784,0.29393703,0.46385127,1.0066781,0.52976984,0.26204428,0.07997757,0.7075322,0.31771907,0.4034787,0.07144936,0.58281505,0.16382967,-0.20629199,-0.06533062,0.20262472,-0.06509567,-0.4769135,-0.57873005,0.15528868,829.2308,802.6374,806.26373,835.2747,1200.7325,-0.27911376953125,-7.32421875E-4,0.98138427734375,4.964599609375,-3.4991455078125,-1.577606201171875,1,1.0,1.0,1.0,1.0,50.00
2022-11-23 20:25:29.550,1.2347784,0.29393703,0.46385127,1.0066781,0.52976984,0.26204428,0.07997757,0.7075322,0.31771907,0.4034787,0.07144936,0.58281505,0.16382967,-0.20629199,-0.06533062,0.20262472,-0.06509567,-0.4769135,-0.57873005,0.15528868,826.4103,803.8461,807.47253,827.2161,942.8571,-0.27911376953125,-7.32421875E-4,0.98138427734375,4.964599609375,-3.4991455078125,-1.577606201171875,1,1.0,1.0,1.0,1.0,50.00
2022-11-23 20:25:29.550,1.2347784,0.29393703,0.46385127,1.0066781,0.52976984,0.26204428,0.07997757,0.7075322,0.31771907,0.4034787,0.07144936,0.58281505,0.16382967,-0.20629199,-0.06533062,0.20262472,-0.06509567,-0.4769135,-0.57873005,0.15528868,784.90845,799.011,809.0842,794.17584,635.82416,-0.27911376953125,-7.32421875E-4,0.98138427734375,4.964599609375,-3.4991455078125,-1.577606201171875,1,1.0,1.0,1.0,1.0,50.00
2022-11-23 20:25:29.550,1.2347784,0.29393703,0.46385127,1.0066781,0.52976984,0.26204428,0.07997757,0.7075322,0.31771907,0.4034787,0.07144936,0.58281505,0.16382967,-0.20629199,-0.06533062,0.20262472,-0.06509567,-0.4769135,-0.57873005,0.15528868,777.6557,799.81683,809.4872,795.78754,622.1245,-0.27911376953125,-7.32421875E-4,0.98138427734375,4.964599609375,-3.4991455078125,-1.577606201171875,1,1.0,1.0,1.0,1.0,50.00
2022-11-23 20:25:29.551,1.2347784,0.29393703,0.46385127,1.0066781,0.52976984,0.26204428,0.07997757,0.7075322,0.31771907,0.4034787,0.07144936,0.58281505,0.16382967,-0.20629199,-0.06533062,0.20262472,-0.06509567,-0.4769135,-0.57873005,0.15528868,809.0842,805.05493,811.9048,813.91943,791.3553,-0.27911376953125,-7.32421875E-4,0.98138427734375,4.964599609375,-3.4991455078125,-1.577606201171875,1,1.0,1.0,1.0,1.0,50.00
2022-11-23 20:25:29.551,1.2347784,0.29393703,0.46385127,1.0066781,0.52976984,0.26204428,0.07997757,0.7075322,0.31771907,0.4034787,0.07144936,0.58281505,0.16382967,-0.20629199,-0.06533062,0.20262472,-0.06509567,-0.4769135,-0.57873005,0.15528868,825.6044,808.2784,812.3077,823.5897,870.32965,-0.27911376953125,-7.32421875E-4,0.98138427734375,4.964599609375,-3.4991455078125,-1.577606201171875,1,1.0,1.0,1.0,1.0,50.00
2022-11-23 20:25:29.611,1.2347784,0.29393703,0.46385127,1.0066781,0.52976984,0.26204428,0.07997757,0.7075322,0.31771907,0.4034787,0.07144936,0.58281505,0.16382967,-0.20629199,-0.06533062,0.20262472,-0.06509567,-0.4769135,-0.57873005,0.15528868,793.7729,810.696,810.696,801.02563,723.663,-0.2576904296875,0.00860595703125,0.9962158203125,5.2337646484375,-4.78515625,-1.03179931640625,1,1.0,1.0,1.0,1.0,50.00
2022-11-23 20:25:29.612,1.2347784,0.29393703,0.46385127,1.0066781,0.52976984,0.26204428,0.07997757,0.7075322,0.31771907,0.4034787,0.07144936,0.58281505,0.16382967,-0.20629199,-0.06533062,0.20262472,-0.06509567,-0.4769135,-0.57873005,0.15528868,766.3736,807.47253,809.89014,786.1172,624.94507,-0.2576904296875,0.00860595703125,0.9962158203125,5.2337646484375,-4.78515625,-1.03179931640625,1,1.0,1.0,1.0,1.0,50.00
2022-11-23 20:25:29.612,1.2347784,0.29393703,0.46385127,1.0066781,0.52976984,0.26204428,0.07997757,0.7075322,0.31771907,0.4034787,0.07144936,0.58281505,0.16382967,-0.20629199,-0.06533062,0.20262472,-0.06509567,-0.4769135,-0.57873005,0.15528868,793.7729,804.2491,809.4872,804.65204,776.04395,-0.2576904296875,0.00860595703125,0.9962158203125,5.2337646484375,-4.78515625,-1.03179931640625,1,1.0,1.0,1.0,1.0,50.00
2022-11-23 20:25:29.612,1.2347784,0.29393703,0.46385127,1.0066781,0.52976984,0.26204428,0.07997757,0.7075322,0.31771907,0.4034787,0.07144936,0.58281505,0.16382967,-0.20629199,-0.06533062,0.20262472,-0.06509567,-0.4769135,-0.57873005,0.15528868,822.7839,801.4286,810.293,817.9487,888.46155,-0.2576904296875,0.00860595703125,0.9962158203125,5.2337646484375,-4.78515625,-1.03179931640625,1,1.0,1.0,1.0,1.0,50.00
2022-11-23 20:25:29.613,1.2347784,0.29393703,0.46385127,1.0066781,0.52976984,0.26204428,0.07997757,0.7075322,0.31771907,0.4034787,0.07144936,0.58281505,0.16382967,-0.20629199,-0.06533062,0.20262472,-0.06509567,-0.4769135,-0.57873005,0.15528868,797.3993,801.02563,810.696,796.5934,777.25275,-0.2576904296875,0.00860595703125,0.9962158203125,5.2337646484375,-4.78515625,-1.03179931640625,1,1.0,1.0,1.0,1.0,50.00
2022-11-23 20:25:29.613,1.2347784,0.29393703,0.46385127,1.0066781,0.52976984,0.26204428,0.07997757,0.7075322,0.31771907,0.4034787,0.07144936,0.58281505,0.16382967,-0.20629199,-0.06533062,0.20262472,-0.06509567,-0.4769135,-0.57873005,0.15528868,766.3736,804.65204,810.293,777.6557,698.2784,-0.2576904296875,0.00860595703125,0.9962158203125,5.2337646484375,-4.78515625,-1.03179931640625,1,1.0,1.0,1.0,1.0,50.00
2022-11-23 20:25:29.613,1.2347784,0.29393703,0.46385127,1.0066781,0.52976984,0.26204428,0.07997757,0.7075322,0.31771907,0.4034787,0.07144936,0.58281505,0.16382967,-0.20629199,-0.06533062,0.20262472,-0.06509567,-0.4769135,-0.57873005,0.15528868,787.326,806.6667,809.89014,794.17584,744.21246,-0.2576904296875,0.00860595703125,0.9962158203125,5.2337646484375,-4.78515625,-1.03179931640625,1,1.0,1.0,1.0,1.0,50.00
2022-11-23 20:25:29.614,1.2347784,0.29393703,0.46385127,1.0066781,0.52976984,0.26204428,0.07997757,0.7075322,0.31771907,0.4034787,0.07144936,0.58281505,0.16382967,-0.20629199,-0.06533062,0.20262472,-0.06509567,-0.4769135,-0.57873005,0.15528868,823.9927,805.05493,810.293,813.1135,788.93774,-0.2576904296875,0.00860595703125,0.9962158203125,5.2337646484375,-4.78515625,-1.03179931640625,1,1.0,1.0,1.0,1.0,50.00
2022-11-23 20:25:29.614,1.2347784,0.29393703,0.46385127,1.0066781,0.52976984,0.26204428,0.07997757,0.7075322,0.31771907,0.4034787,0.07144936,0.58281505,0.16382967,-0.20629199,-0.06533062,0.20262472,-0.06509567,-0.4769135,-0.57873005,0.15528868,813.5165,801.4286,810.293,800.6227,817.9487,-0.2576904296875,0.00860595703125,0.9962158203125,5.2337646484375,-4.78515625,-1.03179931640625,1,1.0,1.0,1.0,1.0,50.00
2022-11-23 20:25:29.614,1.2347784,0.29393703,0.46385127,1.0066781,0.52976984,0.26204428,0.07997757,0.7075322,0.31771907,0.4034787,0.07144936,0.58281505,0.16382967,-0.20629199,-0.06533062,0.20262472,-0.06509567,-0.4769135,-0.57873005,0.15528868,775.2381,798.20514,810.293,784.90845,948.0952,-0.2576904296875,0.00860595703125,0.9962158203125,5.2337646484375,-4.78515625,-1.03179931640625,1,1.0,1.0,1.0,1.0,50.00
2022-11-23 20:25:29.615,1.2347784,0.29393703,0.46385127,1.0066781,0.52976984,0.26204428,0.07997757,0.7075322,0.31771907,0.4034787,0.07144936,0.58281505,0.16382967,-0.20629199,-0.06533062,0.20262472,-0.06509567,-0.4769135,-0.57873005,0.15528868,776.4469,802.23444,807.0696,787.326,842.52747,-0.2576904296875,0.00860595703125,0.9962158203125,5.2337646484375,-4.78515625,-1.03179931640625,1,1.0,1.0,1.0,1.0,50.00
2022-11-23 20:25:29.615,1.2347784,0.29393703,0.46385127,1.0066781,0.52976984,0.26204428,0.07997757,0.7075322,0.31771907,0.4034787,0.07144936,0.58281505,0.16382967,-0.20629199,-0.06533062,0.20262472,-0.06509567,-0.4769135,-0.57873005,0.15528868,815.9341,803.44324,806.6667,808.2784,746.2271,-0.2576904296875,0.00860595703125,0.9962158203125,5.2337646484375,-4.78515625,-1.03179931640625,1,1.0,1.0,1.0,1.0,50.00
2022-11-23 20:25:29.639,1.2347784,0.29393703,0.46385127,1.0066781,0.52976984,0.26204428,0.07997757,0.7075322,0.31771907,0.4034787,0.07144936,0.58281505,0.16382967,-0.20629199,-0.06533062,0.20262472,-0.06509567,-0.4769135,-0.57873005,0.15528868,820.3663,798.20514,807.47253,811.9048,842.9304,-0.26007080078125,0.0130615234375,0.980224609375,3.96270751953125,-2.5421142578125,-1.099090576171875,1,1.0,1.0,1.0,1.0,50.00
2022-11-23 20:25:29.639,1.2347784,0.29393703,0.46385127,1.0066781,0.52976984,0.26204428,0.07997757,0.7075322,0.31771907,0.4034787,0.07144936,0.58281505,0.16382967,-0.20629199,-0.06533062,0.20262472,-0.06509567,-0.4769135,-0.57873005,0.15528868,785.7143,803.0403,810.696,789.7436,726.4835,-0.26007080078125,0.0130615234375,0.980224609375,3.96270751953125,-2.5421142578125,-1.099090576171875,1,1.0,1.0,1.0,1.0,50.00
2022-11-23 20:25:29.639,1.2347784,0.29393703,0.46385127,1.0066781,0.52976984,0.26204428,0.07997757,0.7075322,0.31771907,0.4034787,0.07144936,0.58281505,0.16382967,-0.20629199,-0.06533062,0.20262472,-0.06509567,-0.4769135,-0.57873005,0.15528868,775.64105,805.4579,809.0842,782.8938,651.13556,-0.26007080078125,0.0130615234375,0.980224609375,3.96270751953125,-2.5421142578125,-1.099090576171875,1,1.0,1.0,1.0,1.0,50.00
2022-11-23 20:25:29.640,1.2810851,0.295193,0.4770243,1.0140324,0.56135374,0.3064512,0.085756384,0.73276246,0.31771907,0.42295575,0.07144936,0.58281505,0.16112077,-0.21261914,-0.053305484,0.19507106,-0.081241846,-0.4640393,-0.5719489,0.149699,807.8755,799.81683,805.4579,802.23444,790.14655,-0.26007080078125,0.0130615234375,0.980224609375,3.96270751953125,-2.5421142578125,-1.099090576171875,1,1.0,1.0,1.0,1.0,50.00
2022-11-23 20:25:29.641,1.2810851,0.295193,0.4770243,1.0140324,0.56135374,0.3064512,0.085756384,0.73276246,0.31771907,0.42295575,0.07144936,0.58281505,0.16112077,-0.21261914,-0.053305484,0.19507106,-0.081241846,-0.4640393,-0.5719489,0.149699,830.0366,801.4286,809.89014,816.7399,1006.52014,-0.26007080078125,0.0130615234375,0.980224609375,3.96270751953125,-2.5421142578125,-1.099090576171875,1,1.0,1.0,1.0,1.0,50.00
2022-11-23 20:25:29.641,1.2810851,0.295193,0.4770243,1.0140324,0.56135374,0.3064512,0.085756384,0.73276246,0.31771907,0.42295575,0.07144936,0.58281505,0.16112077,-0.21261914,-0.053305484,0.19507106,-0.081241846,-0.4640393,-0.5719489,0.149699,805.05493,803.44324,811.50183,801.4286,969.0476,-0.26007080078125,0.0130615234375,0.980224609375,3.96270751953125,-2.5421142578125,-1.099090576171875,1,1.0,1.0,1.0,1.0,50.00
2022-11-23 20:25:29.641,1.2810851,0.295193,0.4770243,1.0140324,0.56135374,0.3064512,0.085756384,0.73276246,0.31771907,0.42295575,0.07144936,0.58281505,0.16112077,-0.21261914,-0.053305484,0.19507106,-0.081241846,-0.4640393,-0.5719489,0.149699,784.5055,804.2491,808.2784,787.326,738.1685,-0.26007080078125,0.0130615234375,0.980224609375,3.96270751953125,-2.5421142578125,-1.099090576171875,1,1.0,1.0,1.0,1.0,50.00
2022-11-23 20:25:29.642,1.2810851,0.295193,0.4770243,1.0140324,0.56135374,0.3064512,0.085756384,0.73276246,0.31771907,0.42295575,0.07144936,0.58281505,0.16112077,-0.21261914,-0.053305484,0.19507106,-0.081241846,-0.4640393,-0.5719489,0.149699,809.89014,804.65204,805.4579,805.05493,688.60803,-0.26007080078125,0.0130615234375,0.980224609375,3.96270751953125,-2.5421142578125,-1.099090576171875,1,1.0,1.0,1.0,1.0,50.00
2022-11-23 20:25:29.642,1.2810851,0.295193,0.4770243,1.0140324,0.56135374,0.3064512,0.085756384,0.73276246,0.31771907,0.42295575,0.07144936,0.58281505,0.16112077,-0.21261914,-0.053305484,0.19507106,-0.081241846,-0.4640393,-0.5719489,0.149699,841.31866,804.65204,801.4286,827.2161,970.65936,-0.26007080078125,0.0130615234375,0.980224609375,3.96270751953125,-2.5421142578125,-1.099090576171875,1,1.0,1.0,1.0,1.0,50.00
2022-11-23 20:25:29.642,1.2810851,0.295193,0.4770243,1.0140324,0.56135374,0.3064512,0.085756384,0.73276246,0.31771907,0.42295575,0.07144936,0.58281505,0.16112077,-0.21261914,-0.053305484,0.19507106,-0.081241846,-0.4640393,-0.5719489,0.149699,818.7546,802.6374,801.4286,813.91943,1109.2675,-0.26007080078125,0.0130615234375,0.980224609375,3.96270751953125,-2.5421142578125,-1.099090576171875,1,1.0,1.0,1.0,1.0,50.00
2022-11-23 20:25:29.642,1.2810851,0.295193,0.4770243,1.0140324,0.56135374,0.3064512,0.085756384,0.73276246,0.31771907,0.42295575,0.07144936,0.58281505,0.16112077,-0.21261914,-0.053305484,0.19507106,-0.081241846,-0.4640393,-0.5719489,0.149699,784.10254,802.23444,800.6227,784.90845,727.6923,-0.26007080078125,0.0130615234375,0.980224609375,3.96270751953125,-2.5421142578125,-1.099090576171875,1,1.0,1.0,1.0,1.0,50.00
2022-11-23 20:25:29.643,1.2810851,0.295193,0.4770243,1.0140324,0.56135374,0.3064512,0.085756384,0.73276246,0.31771907,0.42295575,0.07144936,0.58281505,0.16112077,-0.21261914,-0.053305484,0.19507106,-0.081241846,-0.4640393,-0.5719489,0.149699,800.6227,804.65204,796.5934,799.41394,616.8865,-0.26007080078125,0.0130615234375,0.980224609375,3.96270751953125,-2.5421142578125,-1.099090576171875,1,1.0,1.0,1.0,1.0,50.00
2022-11-23 20:25:29.700,1.2810851,0.295193,0.4770243,1.0140324,0.56135374,0.3064512,0.085756384,0.73276246,0.31771907,0.42295575,0.07144936,0.58281505,0.16112077,-0.21261914,-0.053305484,0.19507106,-0.081241846,-0.4640393,-0.5719489,0.149699,838.49817,806.26373,796.1905,826.0073,791.75824,-0.27325439453125,0.011474609375,0.9937744140625,3.66363525390625,-0.426177978515625,-0.710296630859375,1,1.0,1.0,1.0,1.0,50.00
2022-11-23 20:25:29.701,1.2810851,0.295193,0.4770243,1.0140324,0.56135374,0.3064512,0.085756384,0.73276246,0.31771907,0.42295575,0.07144936,0.58281505,0.16112077,-0.21261914,-0.053305484,0.19507106,-0.081241846,-0.4640393,-0.5719489,0.149699,833.663,807.0696,801.8315,821.1722,803.0403,-0.27325439453125,0.011474609375,0.9937744140625,3.66363525390625,-0.426177978515625,-0.710296630859375,1,1.0,1.0,1.0,1.0,50.00
2022-11-23 20:25:29.701,1.2810851,0.295193,0.4770243,1.0140324,0.56135374,0.3064512,0.085756384,0.73276246,0.31771907,0.42295575,0.07144936,0.58281505,0.16112077,-0.21261914,-0.053305484,0.19507106,-0.081241846,-0.4640393,-0.5719489,0.149699,796.1905,808.2784,805.05493,799.81683,669.2674,-0.27325439453125,0.011474609375,0.9937744140625,3.66363525390625,-0.426177978515625,-0.710296630859375,1,1.0,1.0,1.0,1.0,50.00
2022-11-23 20:25:29.701,1.2810851,0.295193,0.4770243,1.0140324,0.56135374,0.3064512,0.085756384,0.73276246,0.31771907,0.42295575,0.07144936,0.58281505,0.16112077,-0.21261914,-0.053305484,0.19507106,-0.081241846,-0.4640393,-0.5719489,0.149699,787.72894,809.4872,804.2491,793.7729,622.9304,-0.27325439453125,0.011474609375,0.9937744140625,3.66363525390625,-0.426177978515625,-0.710296630859375,1,1.0,1.0,1.0,1.0,50.00
2022-11-23 20:25:29.702,1.2810851,0.295193,0.4770243,1.0140324,0.56135374,0.3064512,0.085756384,0.73276246,0.31771907,0.42295575,0.07144936,0.58281505,0.16112077,-0.21261914,-0.053305484,0.19507106,-0.081241846,-0.4640393,-0.5719489,0.149699,825.2015,809.4872,804.65204,819.9634,767.5824,-0.27325439453125,0.011474609375,0.9937744140625,3.66363525390625,-0.426177978515625,-0.710296630859375,1,1.0,1.0,1.0,1.0,50.00
2022-11-23 20:25:29.702,1.2810851,0.295193,0.4770243,1.0140324,0.56135374,0.3064512,0.085756384,0.73276246,0.31771907,0.42295575,0.07144936,0.58281505,0.16112077,-0.21261914,-0.053305484,0.19507106,-0.081241846,-0.4640393,-0.5719489,0.149699,837.28937,809.4872,802.23444,825.6044,918.2784,-0.27325439453125,0.011474609375,0.9937744140625,3.66363525390625,-0.426177978515625,-0.710296630859375,1,1.0,1.0,1.0,1.0,50.00
2022-11-23 20:25:29.702,1.2810851,0.295193,0.4770243,1.0140324,0.56135374,0.3064512,0.085756384,0.73276246,0.31771907,0.42295575,0.07144936,0.58281505,0.16112077,-0.21261914,-0.053305484,0.19507106,-0.081241846,-0.4640393,-0.5719489,0.149699,799.41394,811.0989,796.5934,795.78754,808.2784,-0.27325439453125,0.011474609375,0.9937744140625,3.66363525390625,-0.426177978515625,-0.710296630859375,1,1.0,1.0,1.0,1.0,50.00
2022-11-23 20:25:29.702,1.2810851,0.295193,0.4770243,1.0140324,0.56135374,0.3064512,0.085756384,0.73276246,0.31771907,0.42295575,0.07144936,0.58281505,0.16112077,-0.21261914,-0.053305484,0.19507106,-0.081241846,-0.4640393,-0.5719489,0.149699,782.49084,810.696,797.3993,786.1172,612.8571,-0.27325439453125,0.011474609375,0.9937744140625,3.66363525390625,-0.426177978515625,-0.710296630859375,1,1.0,1.0,1.0,1.0,50.00
2022-11-23 20:25:29.703,1.2810851,0.295193,0.4770243,1.0140324,0.56135374,0.3064512,0.085756384,0.73276246,0.31771907,0.42295575,0.07144936,0.58281505,0.16112077,-0.21261914,-0.053305484,0.19507106,-0.081241846,-0.4640393,-0.5719489,0.149699,813.5165,807.8755,805.05493,815.12823,929.9634,-0.27325439453125,0.011474609375,0.9937744140625,3.66363525390625,-0.426177978515625,-0.710296630859375,1,1.0,1.0,1.0,1.0,50.00
2022-11-23 20:25:29.703,1.2810851,0.295193,0.4770243,1.0140324,0.56135374,0.3064512,0.085756384,0.73276246,0.31771907,0.42295575,0.07144936,0.58281505,0.16112077,-0.21261914,-0.053305484,0.19507106,-0.081241846,-0.4640393,-0.5719489,0.149699,832.8571,805.4579,807.0696,823.1868,1108.0586,-0.27325439453125,0.011474609375,0.9937744140625,3.66363525390625,-0.426177978515625,-0.710296630859375,1,1.0,1.0,1.0,1.0,50.00
2022-11-23 20:25:29.703,1.2810851,0.295193,0.4770243,1.0140324,0.56135374,0.3064512,0.085756384,0.73276246,0.31771907,0.42295575,0.07144936,0.58281505,0.16112077,-0.21261914,-0.053305484,0.19507106,-0.081241846,-0.4640393,-0.5719489,0.149699,808.2784,804.65204,809.4872,800.2198,780.4762,-0.27325439453125,0.011474609375,0.9937744140625,3.66363525390625,-0.426177978515625,-0.710296630859375,1,1.0,1.0,1.0,1.0,50.00
2022-11-23 20:25:29.703,1.2810851,0.295193,0.4770243,1.0140324,0.56135374,0.3064512,0.085756384,0.73276246,0.31771907,0.42295575,0.07144936,0.58281505,0.16112077,-0.21261914,-0.053305484,0.19507106,-0.081241846,-0.4640393,-0.5719489,0.149699,784.10254,808.2784,812.71063,795.78754,712.7839,-0.27325439453125,0.011474609375,0.9937744140625,3.66363525390625,-0.426177978515625,-0.710296630859375,1,1.0,1.0,1.0,1.0,50.00
2022-11-23 20:25:29.726,1.2810851,0.295193,0.4770243,1.0140324,0.56135374,0.3064512,0.085756384,0.73276246,0.31771907,0.42295575,0.07144936,0.58281505,0.16112077,-0.21261914,-0.053305484,0.19507106,-0.081241846,-0.4640393,-0.5719489,0.149699,803.8461,806.6667,812.71063,819.5604,822.381,-0.2764892578125,0.00604248046875,0.98443603515625,2.2430419921875,-1.09161376953125,-1.308441162109375,1,1.0,1.0,1.0,1.0,50.00
2022-11-23 20:25:29.726,1.2810851,0.295193,0.4770243,1.0140324,0.56135374,0.3064512,0.085756384,0.73276246,0.31771907,0.42295575,0.07144936,0.58281505,0.16112077,-0.21261914,-0.053305484,0.19507106,-0.081241846,-0.4640393,-0.5719489,0.149699,833.663,808.68134,811.9048,837.28937,868.315,-0.2764892578125,0.00604248046875,0.98443603515625,2.2430419921875,-1.09161376953125,-1.308441162109375,1,1.0,1.0,1.0,1.0,50.00
2022-11-23 20:25:29.727,1.2810851,0.295193,0.4770243,1.0140324,0.56135374,0.3064512,0.085756384,0.73276246,0.31771907,0.42295575,0.07144936,0.58281505,0.16112077,-0.21261914,-0.053305484,0.19507106,-0.081241846,-0.4640393,-0.5719489,0.149699,819.9634,810.696,812.71063,818.3516,802.6374,-0.2764892578125,0.00604248046875,0.98443603515625,2.2430419921875,-1.09161376953125,-1.308441162109375,1,1.0,1.0,1.0,1.0,50.00
2022-11-23 20:25:29.727,1.2810851,0.295193,0.4770243,1.0140324,0.56135374,0.3064512,0.085756384,0.73276246,0.31771907,0.42295575,0.07144936,0.58281505,0.16112077,-0.21261914,-0.053305484,0.19507106,-0.081241846,-0.4640393,-0.5719489,0.149699,779.67035,807.47253,809.89014,788.93774,738.97437,-0.2764892578125,0.00604248046875,0.98443603515625,2.2430419921875,-1.09161376953125,-1.308441162109375,1,1.0,1.0,1.0,1.0,50.00
2022-11-23 20:25:29.727,1.2810851,0.295193,0.4770243,1.0140324,0.56135374,0.3064512,0.085756384,0.73276246,0.31771907,0.42295575,0.07144936,0.58281505,0.16112077,-0.21261914,-0.053305484,0.19507106,-0.081241846,-0.4640393,-0.5719489,0.149699,785.7143,805.05493,811.0989,797.8022,780.4762,-0.2764892578125,0.00604248046875,0.98443603515625,2.2430419921875,-1.09161376953125,-1.308441162109375,1,1.0,1.0,1.0,1.0,50.00
2022-11-23 20:25:29.727,1.3226355,0.2910763,0.4831361,1.0139695,0.59146076,0.34148577,0.08605461,0.7472798,0.3137539,0.42330772,0.07144936,0.58281505,0.15173353,-0.21463406,-0.046003856,0.19532512,-0.10058776,-0.45271525,-0.5662377,0.11759988,823.9927,805.8608,816.7399,828.022,904.9817,-0.2764892578125,0.00604248046875,0.98443603515625,2.2430419921875,-1.09161376953125,-1.308441162109375,1,1.0,1.0,1.0,1.0,50.00
2022-11-23 20:25:29.729,1.3226355,0.2910763,0.4831361,1.0139695,0.59146076,0.34148577,0.08605461,0.7472798,0.3137539,0.42330772,0.07144936,0.58281505,0.15173353,-0.21463406,-0.046003856,0.19532512,-0.10058776,-0.45271525,-0.5662377,0.11759988,821.1722,807.0696,811.9048,816.337,925.12823,-0.2764892578125,0.00604248046875,0.98443603515625,2.2430419921875,-1.09161376953125,-1.308441162109375,1,1.0,1.0,1.0,1.0,50.00
2022-11-23 20:25:29.729,1.3226355,0.2910763,0.4831361,1.0139695,0.59146076,0.34148577,0.08605461,0.7472798,0.3137539,0.42330772,0.07144936,0.58281505,0.15173353,-0.21463406,-0.046003856,0.19532512,-0.10058776,-0.45271525,-0.5662377,0.11759988,787.326,803.8461,812.3077,787.72894,857.4359,-0.2764892578125,0.00604248046875,0.98443603515625,2.2430419921875,-1.09161376953125,-1.308441162109375,1,1.0,1.0,1.0,1.0,50.00
2022-11-23 20:25:29.729,1.3226355,0.2910763,0.4831361,1.0139695,0.59146076,0.34148577,0.08605461,0.7472798,0.3137539,0.42330772,0.07144936,0.58281505,0.15173353,-0.21463406,-0.046003856,0.19532512,-0.10058776,-0.45271525,-0.5662377,0.11759988,776.8498,802.6374,812.3077,789.34064,861.8681,-0.2764892578125,0.00604248046875,0.98443603515625,2.2430419921875,-1.09161376953125,-1.308441162109375,1,1.0,1.0,1.0,1.0,50.00
2022-11-23 20:25:29.729,1.3226355,0.2910763,0.4831361,1.0139695,0.59146076,0.34148577,0.08605461,0.7472798,0.3137539,0.42330772,0.07144936,0.58281505,0.15173353,-0.21463406,-0.046003856,0.19532512,-0.10058776,-0.45271525,-0.5662377,0.11759988,813.91943,800.6227,806.26373,815.5311,837.28937,-0.2764892578125,0.00604248046875,0.98443603515625,2.2430419921875,-1.09161376953125,-1.308441162109375,1,1.0,1.0,1.0,1.0,50.00
2022-11-23 20:25:29.730,1.3226355,0.2910763,0.4831361,1.0139695,0.59146076,0.34148577,0.08605461,0.7472798,0.3137539,0.42330772,0.07144936,0.58281505,0.15173353,-0.21463406,-0.046003856,0.19532512,-0.10058776,-0.45271525,-0.5662377,0.11759988,827.619,799.011,807.47253,817.5458,902.96704,-0.2764892578125,0.00604248046875,0.98443603515625,2.2430419921875,-1.09161376953125,-1.308441162109375,1,1.0,1.0,1.0,1.0,50.00
2022-11-23 20:25:29.730,1.3226355,0.2910763,0.4831361,1.0139695,0.59146076,0.34148577,0.08605461,0.7472798,0.3137539,0.42330772,0.07144936,0.58281505,0.15173353,-0.21463406,-0.046003856,0.19532512,-0.10058776,-0.45271525,-0.5662377,0.11759988,795.78754,801.8315,810.293,792.96704,828.8278,-0.2764892578125,0.00604248046875,0.98443603515625,2.2430419921875,-1.09161376953125,-1.308441162109375,1,1.0,1.0,1.0,1.0,50.00
2022-11-23 20:25:29.780,1.3226355,0.2910763,0.4831361,1.0139695,0.59146076,0.34148577,0.08605461,0.7472798,0.3137539,0.42330772,0.07144936,0.58281505,0.15173353,-0.21463406,-0.046003856,0.19532512,-0.10058776,-0.45271525,-0.5662377,0.11759988,778.86444,805.05493,812.71063,784.10254,821.5751,-0.2764892578125,0.00604248046875,0.98443603515625,2.2430419921875,-1.09161376953125,-1.308441162109375,1,1.0,1.0,1.0,1.0,50.00
2022-11-23 20:25:29.781,1.3226355,0.2910763,0.4831361,1.0139695,0.59146076,0.34148577,0.08605461,0.7472798,0.3137539,0.42330772,0.07144936,0.58281505,0.15173353,-0.21463406,-0.046003856,0.19532512,-0.10058776,-0.45271525,-0.5662377,0.11759988,808.2784,803.44324,812.3077,805.05493,807.47253,-0.2764892578125,0.00604248046875,0.98443603515625,2.2430419921875,-1.09161376953125,-1.308441162109375,1,1.0,1.0,1.0,1.0,50.00
2022-11-23 20:25:29.781,1.3226355,0.2910763,0.4831361,1.0139695,0.59146076,0.34148577,0.08605461,0.7472798,0.3137539,0.42330772,0.07144936,0.58281505,0.15173353,-0.21463406,-0.046003856,0.19532512,-0.10058776,-0.45271525,-0.5662377,0.11759988,832.8571,805.8608,809.0842,823.9927,809.0842,-0.2764892578125,0.00604248046875,0.98443603515625,2.2430419921875,-1.09161376953125,-1.308441162109375,1,1.0,1.0,1.0,1.0,50.00
2022-11-23 20:25:29.781,1.3226355,0.2910763,0.4831361,1.0139695,0.59146076,0.34148577,0.08605461,0.7472798,0.3137539,0.42330772,0.07144936,0.58281505,0.15173353,-0.21463406,-0.046003856,0.19532512,-0.10058776,-0.45271525,-0.5662377,0.11759988,809.89014,809.89014,807.0696,803.8461,889.67035,-0.2764892578125,0.00604248046875,0.98443603515625,2.2430419921875,-1.09161376953125,-1.308441162109375,1,1.0,1.0,1.0,1.0,50.00
2022-11-23 20:25:29.781,1.3226355,0.2910763,0.4831361,1.0139695,0.59146076,0.34148577,0.08605461,0.7472798,0.3137539,0.42330772,0.07144936,0.58281505,0.15173353,-0.21463406,-0.046003856,0.19532512,-0.10058776,-0.45271525,-0.5662377,0.11759988,791.3553,811.50183,809.89014,790.54944,714.7985,-0.2764892578125,0.00604248046875,0.98443603515625,2.2430419921875,-1.09161376953125,-1.308441162109375,1,1.0,1.0,1.0,1.0,50.00
2022-11-23 20:25:29.782,1.3226355,0.2910763,0.4831361,1.0139695,0.59146076,0.34148577,0.08605461,0.7472798,0.3137539,0.42330772,0.07144936,0.58281505,0.15173353,-0.21463406,-0.046003856,0.19532512,-0.10058776,-0.45271525,-0.5662377,0.11759988,808.2784,812.3077,811.9048,812.71063,721.2454,-0.2764892578125,0.00604248046875,0.98443603515625,2.2430419921875,-1.09161376953125,-1.308441162109375,1,1.0,1.0,1.0,1.0,50.00
2022-11-23 20:25:29.782,1.3226355,0.2910763,0.4831361,1.0139695,0.59146076,0.34148577,0.08605461,0.7472798,0.3137539,0.42330772,0.07144936,0.58281505,0.15173353,-0.21463406,-0.046003856,0.19532512,-0.10058776,-0.45271525,-0.5662377,0.11759988,840.5128,808.2784,808.68134,828.8278,936.8132,-0.2764892578125,0.00604248046875,0.98443603515625,2.2430419921875,-1.09161376953125,-1.308441162109375,1,1.0,1.0,1.0,1.0,50.00
2022-11-23 20:25:29.782,1.3226355,0.2910763,0.4831361,1.0139695,0.59146076,0.34148577,0.08605461,0.7472798,0.3137539,0.42330772,0.07144936,0.58281505,0.15173353,-0.21463406,-0.046003856,0.19532512,-0.10058776,-0.45271525,-0.5662377,0.11759988,828.4249,805.4579,806.26373,813.1135,1099.1941,-0.2764892578125,0.00604248046875,0.98443603515625,2.2430419921875,-1.09161376953125,-1.308441162109375,1,1.0,1.0,1.0,1.0,50.00
2022-11-23 20:25:29.782,1.3226355,0.2910763,0.4831361,1.0139695,0.59146076,0.34148577,0.08605461,0.7472798,0.3137539,0.42330772,0.07144936,0.58281505,0.15173353,-0.21463406,-0.046003856,0.19532512,-0.10058776,-0.45271525,-0.5662377,0.11759988,788.1319,807.0696,805.4579,795.38464,915.05493,-0.2764892578125,0.00604248046875,0.98443603515625,2.2430419921875,-1.09161376953125,-1.308441162109375,1,1.0,1.0,1.0,1.0,50.00
2022-11-23 20:25:29.783,1.3226355,0.2910763,0.4831361,1.0139695,0.59146076,0.34148577,0.08605461,0.7472798,0.3137539,0.42330772,0.07144936,0.58281505,0.15173353,-0.21463406,-0.046003856,0.19532512,-0.10058776,-0.45271525,-0.5662377,0.11759988,796.99634,807.47253,805.8608,797.8022,664.0293,-0.2764892578125,0.00604248046875,0.98443603515625,2.2430419921875,-1.09161376953125,-1.308441162109375,1,1.0,1.0,1.0,1.0,50.00
