TimeStamp,Delta_TP9,Delta_AF7,Delta_AF8,Delta_TP10,Theta_TP9,Theta_AF7,Theta_AF8,Theta_TP10,Alpha_TP9,Alpha_AF7,Alpha_AF8,Alpha_TP10,Beta_TP9,Beta_AF7,Beta_AF8,Beta_TP10,Gamma_TP9,Gamma_AF7,Gamma_AF8,Gamma_TP10,RAW_TP9,RAW_AF7,RAW_AF8,RAW_TP10,AUX_RIGHT,Accelerometer_X,Accelerometer_Y,Accelerometer_Z,Gyro_X,Gyro_Y,Gyro_Z,HeadBandOn,HSI_TP9,HSI_AF7,HSI_AF8,HSI_TP10,Battery,Elements
2022-11-23 20:27:05.416,0.79688364,0.2537046,0.040994737,0.7948883,1.2659925,0.6555262,0.57292736,1.3376971,0.12005913,0.36453295,0.18792328,0.4413798,0.1648929,0.0070432657,-0.051922474,0.2496516,-0.25463,-0.46951473,-0.2809854,-0.17968103,823.5897,801.8315,808.68134,820.3663,799.81683,-0.2431640625,-0.02471923828125,0.9906005859375,2.818756103515625,0.575714111328125,-0.381317138671875,1,1.0,1.0,1.0,1.0,50.00
2022-11-23 20:27:05.417,0.79688364,0.2537046,0.040994737,0.7948883,1.2659925,0.6555262,0.57292736,1.3376971,0.12005913,0.36453295,0.18792328,0.4413798,0.1648929,0.0070432657,-0.051922474,0.2496516,-0.25463,-0.46951473,-0.2809854,-0.17968103,797.8022,800.2198,800.6227,796.5934,776.04395,-0.2431640625,-0.02471923828125,0.9906005859375,2.818756103515625,0.575714111328125,-0.381317138671875,1,1.0,1.0,1.0,1.0,50.00
2022-11-23 20:27:05.417,0.79688364,0.2537046,0.040994737,0.7948883,1.2659925,0.6555262,0.57292736,1.3376971,0.12005913,0.36453295,0.18792328,0.4413798,0.1648929,0.0070432657,-0.051922474,0.2496516,-0.25463,-0.46951473,-0.2809854,-0.17968103,770.0,801.02563,803.44324,777.25275,637.4359,-0.2431640625,-0.02471923828125,0.9906005859375,2.818756103515625,0.575714111328125,-0.381317138671875,1,1.0,1.0,1.0,1.0,50.00
2022-11-23 20:27:05.417,0.79688364,0.2537046,0.040994737,0.7948883,1.2659925,0.6555262,0.57292736,1.3376971,0.12005913,0.36453295,0.18792328,0.4413798,0.1648929,0.0070432657,-0.051922474,0.2496516,-0.25463,-0.46951473,-0.2809854,-0.17968103,786.52014,800.2198,808.2784,796.99634,640.65936,-0.2431640625,-0.02471923828125,0.9906005859375,2.818756103515625,0.575714111328125,-0.381317138671875,1,1.0,1.0,1.0,1.0,50.00
2022-11-23 20:27:05.417,0.79688364,0.2537046,0.040994737,0.7948883,1.2659925,0.6555262,0.57292736,1.3376971,0.12005913,0.36453295,0.18792328,0.4413798,0.1648929,0.0070432657,-0.051922474,0.2496516,-0.25463,-0.46951473,-0.2809854,-0.17968103,831.2454,801.8315,809.4872,829.2308,799.011,-0.2431640625,-0.02471923828125,0.9906005859375,2.818756103515625,0.575714111328125,-0.381317138671875,1,1.0,1.0,1.0,1.0,50.00
2022-11-23 20:27:05.417,0.7898688,0.22266011,0.014253731,0.7923838,1.2272496,0.59037644,0.532358,1.2920963,0.060019784,0.30621836,0.18792328,0.43644094,0.15542632,2.6249877E-4,-0.054041177,0.20221145,-0.27000907,-0.4765439,-0.2849486,-0.19768699,823.5897,807.47253,807.0696,817.1429,1076.227,-0.2431640625,-0.02471923828125,0.9906005859375,2.818756103515625,0.575714111328125,-0.381317138671875,1,1.0,1.0,1.0,1.0,50.00
2022-11-23 20:27:05.419,0.7898688,0.22266011,0.014253731,0.7923838,1.2272496,0.59037644,0.532358,1.2920963,0.060019784,0.30621836,0.18792328,0.43644094,0.15542632,2.6249877E-4,-0.054041177,0.20221145,-0.27000907,-0.4765439,-0.2849486,-0.19768699,781.685,807.8755,807.0696,790.14655,859.85345,-0.2431640625,-0.02471923828125,0.9906005859375,2.818756103515625,0.575714111328125,-0.381317138671875,1,1.0,1.0,1.0,1.0,50.00
2022-11-23 20:27:05.419,0.7898688,0.22266011,0.014253731,0.7923838,1.2272496,0.59037644,0.532358,1.2920963,0.060019784,0.30621836,0.18792328,0.43644094,0.15542632,2.6249877E-4,-0.054041177,0.20221145,-0.27000907,-0.4765439,-0.2849486,-0.19768699,787.326,805.4579,809.4872,801.4286,588.2784,-0.2431640625,-0.02471923828125,0.9906005859375,2.818756103515625,0.575714111328125,-0.381317138671875,1,1.0,1.0,1.0,1.0,50.00
2022-11-23 20:27:05.419,0.7898688,0.22266011,0.014253731,0.7923838,1.2272496,0.59037644,0.532358,1.2920963,0.060019784,0.30621836,0.18792328,0.43644094,0.15542632,2.6249877E-4,-0.054041177,0.20221145,-0.27000907,-0.4765439,-0.2849486,-0.19768699,829.2308,805.4579,806.6667,825.6044,810.293,-0.2431640625,-0.02471923828125,0.9906005859375,2.818756103515625,0.575714111328125,-0.381317138671875,1,1.0,1.0,1.0,1.0,50.00
2022-11-23 20:27:05.419,0.7898688,0.22266011,0.014253731,0.7923838,1.2272496,0.59037644,0.532358,1.2920963,0.060019784,0.30621836,0.18792328,0.43644094,0.15542632,2.6249877E-4,-0.054041177,0.20221145,-0.27000907,-0.4765439,-0.2849486,-0.19768699,830.4396,805.4579,805.8608,822.7839,986.77655,-0.2431640625,-0.02471923828125,0.9906005859375,2.818756103515625,0.575714111328125,-0.381317138671875,1,1.0,1.0,1.0,1.0,50.00
2022-11-23 20:27:05.420,0.7898688,0.22266011,0.014253731,0.7923838,1.2272496,0.59037644,0.532358,1.2920963,0.060019784,0.30621836,0.18792328,0.43644094,0.15542632,2.6249877E-4,-0.054041177,0.20221145,-0.27000907,-0.4765439,-0.2849486,-0.19768699,792.1612,805.4579,804.2491,792.5641,733.3333,-0.2431640625,-0.02471923828125,0.9906005859375,2.818756103515625,0.575714111328125,-0.381317138671875,1,1.0,1.0,1.0,1.0,50.00
2022-11-23 20:27:05.420,0.7898688,0.22266011,0.014253731,0.7923838,1.2272496,0.59037644,0.532358,1.2920963,0.060019784,0.30621836,0.18792328,0.43644094,0.15542632,2.6249877E-4,-0.054041177,0.20221145,-0.27000907,-0.4765439,-0.2849486,-0.19768699,774.83514,801.8315,803.44324,789.34064,608.022,-0.2431640625,-0.02471923828125,0.9906005859375,2.818756103515625,0.575714111328125,-0.381317138671875,1,1.0,1.0,1.0,1.0,50.00
2022-11-23 20:27:05.443,0.7898688,0.22266011,0.014253731,0.7923838,1.2272496,0.59037644,0.532358,1.2920963,0.060019784,0.30621836,0.18792328,0.43644094,0.15542632,2.6249877E-4,-0.054041177,0.20221145,-0.27000907,-0.4765439,-0.2849486,-0.19768699,810.293,796.5934,803.8461,816.7399,741.79486,-0.2393798828125,-0.0269775390625,0.9876708984375,3.48419189453125,0.800018310546875,-1.173858642578125,1,1.0,1.0,1.0,1.0,50.00
2022-11-23 20:27:05.444,0.7898688,0.22266011,0.014253731,0.7923838,1.2272496,0.59037644,0.532358,1.2920963,0.060019784,0.30621836,0.18792328,0.43644094,0.15542632,2.6249877E-4,-0.054041177,0.20221145,-0.27000907,-0.4765439,-0.2849486,-0.19768699,834.4689,795.38464,805.05493,822.381,852.6007,-0.2393798828125,-0.0269775390625,0.9876708984375,3.48419189453125,0.800018310546875,-1.173858642578125,1,1.0,1.0,1.0,1.0,50.00
2022-11-23 20:27:05.444,0.7898688,0.22266011,0.014253731,0.7923838,1.2272496,0.59037644,0.532358,1.2920963,0.060019784,0.30621836,0.18792328,0.43644094,0.15542632,2.6249877E-4,-0.054041177,0.20221145,-0.27000907,-0.4765439,-0.2849486,-0.19768699,798.60803,798.60803,810.293,794.9817,730.10986,-0.2393798828125,-0.0269775390625,0.9876708984375,3.48419189453125,0.800018310546875,-1.173858642578125,1,1.0,1.0,1.0,1.0,50.00
2022-11-23 20:27:05.444,0.7898688,0.22266011,0.014253731,0.7923838,1.2272496,0.59037644,0.532358,1.2920963,0.060019784,0.30621836,0.18792328,0.43644094,0.15542632,2.6249877E-4,-0.054041177,0.20221145,-0.27000907,-0.4765439,-0.2849486,-0.19768699,775.64105,803.0403,809.89014,790.14655,547.98535,-0.2393798828125,-0.0269775390625,0.9876708984375,3.48419189453125,0.800018310546875,-1.173858642578125,1,1.0,1.0,1.0,1.0,50.00
2022-11-23 20:27:05.444,0.7898688,0.22266011,0.014253731,0.7923838,1.2272496,0.59037644,0.532358,1.2920963,0.060019784,0.30621836,0.18792328,0.43644094,0.15542632,2.6249877E-4,-0.054041177,0.20221145,-0.27000907,-0.4765439,-0.2849486,-0.19768699,805.8608,804.2491,803.0403,815.5311,658.7912,-0.2393798828125,-0.0269775390625,0.9876708984375,3.48419189453125,0.800018310546875,-1.173858642578125,1,1.0,1.0,1.0,1.0,50.00
2022-11-23 20:27:05.445,0.7898688,0.22266011,0.014253731,0.7923838,1.2272496,0.59037644,0.532358,1.2920963,0.060019784,0.30621836,0.18792328,0.43644094,0.15542632,2.6249877E-4,-0.054041177,0.20221145,-0.27000907,-0.4765439,-0.2849486,-0.19768699,833.2601,804.65204,802.23444,827.619,867.1062,-0.2393798828125,-0.0269775390625,0.9876708984375,3.48419189453125,0.800018310546875,-1.173858642578125,1,1.0,1.0,1.0,1.0,50.00
2022-11-23 20:27:05.445,0.7898688,0.22266011,0.014253731,0.7923838,1.2272496,0.59037644,0.532358,1.2920963,0.060019784,0.30621836,0.18792328,0.43644094,0.15542632,2.6249877E-4,-0.054041177,0.20221145,-0.27000907,-0.4765439,-0.2849486,-0.19768699,817.9487,805.05493,801.02563,811.0989,875.56775,-0.2393798828125,-0.0269775390625,0.9876708984375,3.48419189453125,0.800018310546875,-1.173858642578125,1,1.0,1.0,1.0,1.0,50.00
2022-11-23 20:27:05.445,0.7898688,0.22266011,0.014253731,0.7923838,1.2272496,0.59037644,0.532358,1.2920963,0.060019784,0.30621836,0.18792328,0.43644094,0.15542632,2.6249877E-4,-0.054041177,0.20221145,-0.27000907,-0.4765439,-0.2849486,-0.19768699,786.1172,800.6227,799.41394,788.93774,691.02563,-0.2393798828125,-0.0269775390625,0.9876708984375,3.48419189453125,0.800018310546875,-1.173858642578125,1,1.0,1.0,1.0,1.0,50.00
2022-11-23 20:27:05.445,0.7898688,0.22266011,0.014253731,0.7923838,1.2272496,0.59037644,0.532358,1.2920963,0.060019784,0.30621836,0.18792328,0.43644094,0.15542632,2.6249877E-4,-0.054041177,0.20221145,-0.27000907,-0.4765439,-0.2849486,-0.19768699,794.57874,798.60803,804.2491,799.41394,752.27106,-0.2393798828125,-0.0269775390625,0.9876708984375,3.48419189453125,0.800018310546875,-1.173858642578125,1,1.0,1.0,1.0,1.0,50.00
2022-11-23 20:27:05.446,0.7898688,0.22266011,0.014253731,0.7923838,1.2272496,0.59037644,0.532358,1.2920963,0.060019784,0.30621836,0.18792328,0.43644094,0.15542632,2.6249877E-4,-0.054041177,0.20221145,-0.27000907,-0.4765439,-0.2849486,-0.19768699,830.84247,802.23444,807.0696,823.1868,1141.9048,-0.2393798828125,-0.0269775390625,0.9876708984375,3.48419189453125,0.800018310546875,-1.173858642578125,1,1.0,1.0,1.0,1.0,50.00
2022-11-23 20:27:05.446,0.7898688,0.22266011,0.014253731,0.7923838,1.2272496,0.59037644,0.532358,1.2920963,0.060019784,0.30621836,0.18792328,0.43644094,0.15542632,2.6249877E-4,-0.054041177,0.20221145,-0.27000907,-0.4765439,-0.2849486,-0.19768699,827.2161,803.0403,807.47253,815.9341,960.18317,-0.2393798828125,-0.0269775390625,0.9876708984375,3.48419189453125,0.800018310546875,-1.173858642578125,1,1.0,1.0,1.0,1.0,50.00
2022-11-23 20:27:05.446,0.7898688,0.22266011,0.014253731,0.7923838,1.2272496,0.59037644,0.532358,1.2920963,0.060019784,0.30621836,0.18792328,0.43644094,0.15542632,2.6249877E-4,-0.054041177,0.20221145,-0.27000907,-0.4765439,-0.2849486,-0.19768699,786.1172,801.8315,806.6667,787.72894,643.0769,-0.2393798828125,-0.0269775390625,0.9876708984375,3.48419189453125,0.800018310546875,-1.173858642578125,1,1.0,1.0,1.0,1.0,50.00
2022-11-23 20:27:05.493,0.7898688,0.22266011,0.014253731,0.7923838,1.2272496,0.59037644,0.532358,1.2920963,0.060019784,0.30621836,0.18792328,0.43644094,0.15542632,2.6249877E-4,-0.054041177,0.20221145,-0.27000907,-0.4765439,-0.2849486,-0.19768699,781.28204,803.0403,803.44324,788.1319,720.0366,-0.25518798828125,-0.0245361328125,0.99078369140625,3.626251220703125,1.338348388671875,-1.039276123046875,1,1.0,1.0,1.0,1.0,50.00
2022-11-23 20:27:05.493,0.7898688,0.22266011,0.014253731,0.7923838,1.2272496,0.59037644,0.532358,1.2920963,0.060019784,0.30621836,0.18792328,0.43644094,0.15542632,2.6249877E-4,-0.054041177,0.20221145,-0.27000907,-0.4765439,-0.2849486,-0.19768699,818.3516,798.20514,802.23444,809.89014,867.1062,-0.25518798828125,-0.0245361328125,0.99078369140625,3.626251220703125,1.338348388671875,-1.039276123046875,1,1.0,1.0,1.0,1.0,50.00
2022-11-23 20:27:05.494,0.7898688,0.22266011,0.014253731,0.7923838,1.2272496,0.59037644,0.532358,1.2920963,0.060019784,0.30621836,0.18792328,0.43644094,0.15542632,2.6249877E-4,-0.054041177,0.20221145,-0.27000907,-0.4765439,-0.2849486,-0.19768699,829.6337,796.99634,802.6374,816.337,850.989,-0.25518798828125,-0.0245361328125,0.99078369140625,3.626251220703125,1.338348388671875,-1.039276123046875,1,1.0,1.0,1.0,1.0,50.00
2022-11-23 20:27:05.494,0.7898688,0.22266011,0.014253731,0.7923838,1.2272496,0.59037644,0.532358,1.2920963,0.060019784,0.30621836,0.18792328,0.43644094,0.15542632,2.6249877E-4,-0.054041177,0.20221145,-0.27000907,-0.4765439,-0.2849486,-0.19768699,791.75824,800.6227,803.0403,794.17584,730.5128,-0.25518798828125,-0.0245361328125,0.99078369140625,3.626251220703125,1.338348388671875,-1.039276123046875,1,1.0,1.0,1.0,1.0,50.00
2022-11-23 20:27:05.494,0.7898688,0.22266011,0.014253731,0.7923838,1.2272496,0.59037644,0.532358,1.2920963,0.060019784,0.30621836,0.18792328,0.43644094,0.15542632,2.6249877E-4,-0.054041177,0.20221145,-0.27000907,-0.4765439,-0.2849486,-0.19768699,772.8205,800.2198,802.6374,784.90845,680.9524,-0.25518798828125,-0.0245361328125,0.99078369140625,3.626251220703125,1.338348388671875,-1.039276123046875,1,1.0,1.0,1.0,1.0,50.00
2022-11-23 20:27:05.494,0.7898688,0.22266011,0.014253731,0.7923838,1.2272496,0.59037644,0.532358,1.2920963,0.060019784,0.30621836,0.18792328,0.43644094,0.15542632,2.6249877E-4,-0.054041177,0.20221145,-0.27000907,-0.4765439,-0.2849486,-0.19768699,806.6667,800.2198,801.02563,810.696,858.6447,-0.25518798828125,-0.0245361328125,0.99078369140625,3.626251220703125,1.338348388671875,-1.039276123046875,1,1.0,1.0,1.0,1.0,50.00
2022-11-23 20:27:05.494,0.7898688,0.22266011,0.014253731,0.7923838,1.2272496,0.59037644,0.532358,1.2920963,0.060019784,0.30621836,0.18792328,0.43644094,0.15542632,2.6249877E-4,-0.054041177,0.20221145,-0.27000907,-0.4765439,-0.2849486,-0.19768699,831.2454,803.8461,798.60803,821.1722,960.58606,-0.25518798828125,-0.0245361328125,0.99078369140625,3.626251220703125,1.338348388671875,-1.039276123046875,1,1.0,1.0,1.0,1.0,50.00
2022-11-23 20:27:05.495,0.7726374,0.18822947,-0.011311251,0.7820501,1.1826614,0.5329598,0.49154255,1.2427819,0.031893857,0.23436227,0.18932931,0.43011832,0.15112443,-0.011104415,-0.05732196,0.16155516,-0.28391245,-0.48173314,-0.28371224,-0.21310377,804.2491,803.44324,796.1905,798.20514,765.9707,-0.25518798828125,-0.0245361328125,0.99078369140625,3.626251220703125,1.338348388671875,-1.039276123046875,1,1.0,1.0,1.0,1.0,50.00
2022-11-23 20:27:05.496,0.7726374,0.18822947,-0.011311251,0.7820501,1.1826614,0.5329598,0.49154255,1.2427819,0.031893857,0.23436227,0.18932931,0.43011832,0.15112443,-0.011104415,-0.05732196,0.16155516,-0.28391245,-0.48173314,-0.28371224,-0.21310377,784.90845,801.4286,798.20514,790.9524,858.6447,-0.25518798828125,-0.0245361328125,0.99078369140625,3.626251220703125,1.338348388671875,-1.039276123046875,1,1.0,1.0,1.0,1.0,50.00
2022-11-23 20:27:05.496,0.7726374,0.18822947,-0.011311251,0.7820501,1.1826614,0.5329598,0.49154255,1.2427819,0.031893857,0.23436227,0.18932931,0.43011832,0.15112443,-0.011104415,-0.05732196,0.16155516,-0.28391245,-0.48173314,-0.28371224,-0.21310377,803.44324,801.02563,803.0403,808.68134,927.1429,-0.25518798828125,-0.0245361328125,0.99078369140625,3.626251220703125,1.338348388671875,-1.039276123046875,1,1.0,1.0,1.0,1.0,50.00
2022-11-23 20:27:05.496,0.7726374,0.18822947,-0.011311251,0.7820501,1.1826614,0.5329598,0.49154255,1.2427819,0.031893857,0.23436227,0.18932931,0.43011832,0.15112443,-0.011104415,-0.05732196,0.16155516,-0.28391245,-0.48173314,-0.28371224,-0.21310377,824.7985,799.011,799.41394,819.15753,844.1392,-0.25518798828125,-0.0245361328125,0.99078369140625,3.626251220703125,1.338348388671875,-1.039276123046875,1,1.0,1.0,1.0,1.0,50.00
2022-11-23 20:27:05.496,0.7726374,0.18822947,-0.011311251,0.7820501,1.1826614,0.5329598,0.49154255,1.2427819,0.031893857,0.23436227,0.18932931,0.43011832,0.15112443,-0.011104415,-0.05732196,0.16155516,-0.28391245,-0.48173314,-0.28371224,-0.21310377,813.1135,797.3993,794.9817,801.8315,838.0952,-0.25518798828125,-0.0245361328125,0.99078369140625,3.626251220703125,1.338348388671875,-1.039276123046875,1,1.0,1.0,1.0,1.0,50.00
2022-11-23 20:27:05.518,0.7726374,0.18822947,-0.011311251,0.7820501,1.1826614,0.5329598,0.49154255,1.2427819,0.031893857,0.23436227,0.18932931,0.43011832,0.15112443,-0.011104415,-0.05732196,0.16155516,-0.28391245,-0.48173314,-0.28371224,-0.21310377,778.46155,792.1612,791.75824,776.04395,653.1502,-0.2353515625,-0.0174560546875,1.00262451171875,4.314117431640625,-0.2691650390625,0.351409912109375,1,1.0,1.0,1.0,1.0,50.00
2022-11-23 20:27:05.519,0.7726374,0.18822947,-0.011311251,0.7820501,1.1826614,0.5329598,0.49154255,1.2427819,0.031893857,0.23436227,0.18932931,0.43011832,0.15112443,-0.011104415,-0.05732196,0.16155516,-0.28391245,-0.48173314,-0.28371224,-0.21310377,782.49084,791.3553,796.5934,790.54944,601.5751,-0.2353515625,-0.0174560546875,1.00262451171875,4.314117431640625,-0.2691650390625,0.351409912109375,1,1.0,1.0,1.0,1.0,50.00
2022-11-23 20:27:05.519,0.7726374,0.18822947,-0.011311251,0.7820501,1.1826614,0.5329598,0.49154255,1.2427819,0.031893857,0.23436227,0.18932931,0.43011832,0.15112443,-0.011104415,-0.05732196,0.16155516,-0.28391245,-0.48173314,-0.28371224,-0.21310377,823.1868,796.5934,802.23444,818.3516,810.293,-0.2353515625,-0.0174560546875,1.00262451171875,4.314117431640625,-0.2691650390625,0.351409912109375,1,1.0,1.0,1.0,1.0,50.00
2022-11-23 20:27:05.519,0.7726374,0.18822947,-0.011311251,0.7820501,1.1826614,0.5329598,0.49154255,1.2427819,0.031893857,0.23436227,0.18932931,0.43011832,0.15112443,-0.011104415,-0.05732196,0.16155516,-0.28391245,-0.48173314,-0.28371224,-0.21310377,823.1868,799.41394,801.4286,809.0842,815.12823,-0.2353515625,-0.0174560546875,1.00262451171875,4.314117431640625,-0.2691650390625,0.351409912109375,1,1.0,1.0,1.0,1.0,50.00
2022-11-23 20:27:05.519,0.7726374,0.18822947,-0.011311251,0.7820501,1.1826614,0.5329598,0.49154255,1.2427819,0.031893857,0.23436227,0.18932931,0.43011832,0.15112443,-0.011104415,-0.05732196,0.16155516,-0.28391245,-0.48173314,-0.28371224,-0.21310377,778.46155,799.81683,801.02563,779.2674,647.1062,-0.2353515625,-0.0174560546875,1.00262451171875,4.314117431640625,-0.2691650390625,0.351409912109375,1,1.0,1.0,1.0,1.0,50.00
2022-11-23 20:27:05.519,0.7726374,0.18822947,-0.011311251,0.7820501,1.1826614,0.5329598,0.49154255,1.2427819,0.031893857,0.23436227,0.18932931,0.43011832,0.15112443,-0.011104415,-0.05732196,0.16155516,-0.28391245,-0.48173314,-0.28371224,-0.21310377,777.25275,805.4579,803.8461,782.8938,682.1612,-0.2353515625,-0.0174560546875,1.00262451171875,4.314117431640625,-0.2691650390625,0.351409912109375,1,1.0,1.0,1.0,1.0,50.00
2022-11-23 20:27:05.520,0.7726374,0.18822947,-0.011311251,0.7820501,1.1826614,0.5329598,0.49154255,1.2427819,0.031893857,0.23436227,0.18932931,0.43011832,0.15112443,-0.011104415,-0.05732196,0.16155516,-0.28391245,-0.48173314,-0.28371224,-0.21310377,814.7253,808.2784,805.8608,808.2784,847.76556,-0.2353515625,-0.0174560546875,1.00262451171875,4.314117431640625,-0.2691650390625,0.351409912109375,1,1.0,1.0,1.0,1.0,50.00
2022-11-23 20:27:05.520,0.7726374,0.18822947,-0.011311251,0.7820501,1.1826614,0.5329598,0.49154255,1.2427819,0.031893857,0.23436227,0.18932931,0.43011832,0.15112443,-0.011104415,-0.05732196,0.16155516,-0.28391245,-0.48173314,-0.28371224,-0.21310377,821.978,805.8608,800.6227,811.9048,981.9414,-0.2353515625,-0.0174560546875,1.00262451171875,4.314117431640625,-0.2691650390625,0.351409912109375,1,1.0,1.0,1.0,1.0,50.00
2022-11-23 20:27:05.520,0.7726374,0.18822947,-0.011311251,0.7820501,1.1826614,0.5329598,0.49154255,1.2427819,0.031893857,0.23436227,0.18932931,0.43011832,0.15112443,-0.011104415,-0.05732196,0.16155516,-0.28391245,-0.48173314,-0.28371224,-0.21310377,790.9524,806.6667,797.3993,789.34064,956.1539,-0.2353515625,-0.0174560546875,1.00262451171875,4.314117431640625,-0.2691650390625,0.351409912109375,1,1.0,1.0,1.0,1.0,50.00
2022-11-23 20:27:05.520,0.7726374,0.18822947,-0.011311251,0.7820501,1.1826614,0.5329598,0.49154255,1.2427819,0.031893857,0.23436227,0.18932931,0.43011832,0.15112443,-0.011104415,-0.05732196,0.16155516,-0.28391245,-0.48173314,-0.28371224,-0.21310377,776.8498,805.8608,795.78754,776.04395,659.59705,-0.2353515625,-0.0174560546875,1.00262451171875,4.314117431640625,-0.2691650390625,0.351409912109375,1,1.0,1.0,1.0,1.0,50.00
2022-11-23 20:27:05.520,0.7726374,0.18822947,-0.011311251,0.7820501,1.1826614,0.5329598,0.49154255,1.2427819,0.031893857,0.23436227,0.18932931,0.43011832,0.15112443,-0.011104415,-0.05732196,0.16155516,-0.28391245,-0.48173314,-0.28371224,-0.21310377,805.05493,801.4286,794.9817,794.9817,680.54944,-0.2353515625,-0.0174560546875,1.00262451171875,4.314117431640625,-0.2691650390625,0.351409912109375,1,1.0,1.0,1.0,1.0,50.00
2022-11-23 20:27:05.521,0.7726374,0.18822947,-0.011311251,0.7820501,1.1826614,0.5329598,0.49154255,1.2427819,0.031893857,0.23436227,0.18932931,0.43011832,0.15112443,-0.011104415,-0.05732196,0.16155516,-0.28391245,-0.48173314,-0.28371224,-0.21310377,832.0513,803.0403,799.81683,820.7692,1002.8938,-0.2353515625,-0.0174560546875,1.00262451171875,4.314117431640625,-0.2691650390625,0.351409912109375,1,1.0,1.0,1.0,1.0,50.00
2022-11-23 20:27:05.569,0.7726374,0.18822947,-0.011311251,0.7820501,1.1826614,0.5329598,0.49154255,1.2427819,0.031893857,0.23436227,0.18932931,0.43011832,0.15112443,-0.011104415,-0.05732196,0.16155516,-0.28391245,-0.48173314,-0.28371224,-0.21310377,813.5165,805.05493,799.81683,806.26373,1018.60803,-0.24774169921875,-0.01806640625,0.9794921875,2.250518798828125,0.650482177734375,3.237457275390625,1,1.0,1.0,1.0,1.0,50.00
2022-11-23 20:27:05.569,0.7726374,0.18822947,-0.011311251,0.7820501,1.1826614,0.5329598,0.49154255,1.2427819,0.031893857,0.23436227,0.18932931,0.43011832,0.15112443,-0.011104415,-0.05732196,0.16155516,-0.28391245,-0.48173314,-0.28371224,-0.21310377,784.90845,800.2198,804.65204,788.5348,757.50916,-0.24774169921875,-0.01806640625,0.9794921875,2.250518798828125,0.650482177734375,3.237457275390625,1,1.0,1.0,1.0,1.0,50.00
2022-11-23 20:27:05.570,0.7726374,0.18822947,-0.011311251,0.7820501,1.1826614,0.5329598,0.49154255,1.2427819,0.031893857,0.23436227,0.18932931,0.43011832,0.15112443,-0.011104415,-0.05732196,0.16155516,-0.28391245,-0.48173314,-0.28371224,-0.21310377,805.05493,804.2491,808.68134,808.2784,819.5604,-0.24774169921875,-0.01806640625,0.9794921875,2.250518798828125,0.650482177734375,3.237457275390625,1,1.0,1.0,1.0,1.0,50.00
2022-11-23 20:27:05.570,0.7726374,0.18822947,-0.011311251,0.7820501,1.1826614,0.5329598,0.49154255,1.2427819,0.031893857,0.23436227,0.18932931,0.43011832,0.15112443,-0.011104415,-0.05732196,0.16155516,-0.28391245,-0.48173314,-0.28371224,-0.21310377,840.10986,808.2784,805.4579,828.8278,991.6117,-0.24774169921875,-0.01806640625,0.9794921875,2.250518798828125,0.650482177734375,3.237457275390625,1,1.0,1.0,1.0,1.0,50.00
2022-11-23 20:27:05.570,0.7726374,0.18822947,-0.011311251,0.7820501,1.1826614,0.5329598,0.49154255,1.2427819,0.031893857,0.23436227,0.18932931,0.43011832,0.15112443,-0.011104415,-0.05732196,0.16155516,-0.28391245,-0.48173314,-0.28371224,-0.21310377,827.619,811.0989,808.68134,820.7692,894.90845,-0.24774169921875,-0.01806640625,0.9794921875,2.250518798828125,0.650482177734375,3.237457275390625,1,1.0,1.0,1.0,1.0,50.00
2022-11-23 20:27:05.570,0.7726374,0.18822947,-0.011311251,0.7820501,1.1826614,0.5329598,0.49154255,1.2427819,0.031893857,0.23436227,0.18932931,0.43011832,0.15112443,-0.011104415,-0.05732196,0.16155516,-0.28391245,-0.48173314,-0.28371224,-0.21310377,790.54944,811.9048,808.2784,801.4286,806.6667,-0.24774169921875,-0.01806640625,0.9794921875,2.250518798828125,0.650482177734375,3.237457275390625,1,1.0,1.0,1.0,1.0,50.00
2022-11-23 20:27:05.571,0.7726374,0.18822947,-0.011311251,0.7820501,1.1826614,0.5329598,0.49154255,1.2427819,0.031893857,0.23436227,0.18932931,0.43011832,0.15112443,-0.011104415,-0.05732196,0.16155516,-0.28391245,-0.48173314,-0.28371224,-0.21310377,809.0842,805.05493,807.47253,821.5751,844.5421,-0.24774169921875,-0.01806640625,0.9794921875,2.250518798828125,0.650482177734375,3.237457275390625,1,1.0,1.0,1.0,1.0,50.00
2022-11-23 20:27:05.571,0.7726374,0.18822947,-0.011311251,0.7820501,1.1826614,0.5329598,0.49154255,1.2427819,0.031893857,0.23436227,0.18932931,0.43011832,0.15112443,-0.011104415,-0.05732196,0.16155516,-0.28391245,-0.48173314,-0.28371224,-0.21310377,859.85345,807.0696,810.293,858.6447,1063.7362,-0.24774169921875,-0.01806640625,0.9794921875,2.250518798828125,0.650482177734375,3.237457275390625,1,1.0,1.0,1.0,1.0,50.00
2022-11-23 20:27:05.571,0.7726374,0.18822947,-0.011311251,0.7820501,1.1826614,0.5329598,0.49154255,1.2427819,0.031893857,0.23436227,0.18932931,0.43011832,0.15112443,-0.011104415,-0.05732196,0.16155516,-0.28391245,-0.48173314,-0.28371224,-0.21310377,830.4396,807.47253,810.293,829.6337,977.1062,-0.24774169921875,-0.01806640625,0.9794921875,2.250518798828125,0.650482177734375,3.237457275390625,1,1.0,1.0,1.0,1.0,50.00
2022-11-23 20:27:05.571,0.7412627,0.14210834,-0.05025918,0.7538323,1.1302541,0.4746773,0.450195,1.1906698,0.03503366,0.15834752,0.19226986,0.39556336,0.15091124,-0.023414208,-0.06684783,0.13625439,-0.30055583,-0.48713523,-0.2784567,-0.2277089,767.5824,807.8755,812.71063,776.8498,636.2271,-0.24774169921875,-0.01806640625,0.9794921875,2.250518798828125,0.650482177734375,3.237457275390625,1,1.0,1.0,1.0,1.0,50.00
2022-11-23 20:27:05.572,0.7412627,0.14210834,-0.05025918,0.7538323,1.1302541,0.4746773,0.450195,1.1906698,0.03503366,0.15834752,0.19226986,0.39556336,0.15091124,-0.023414208,-0.06684783,0.13625439,-0.30055583,-0.48713523,-0.2784567,-0.2277089,756.7033,809.0842,813.5165,767.1795,587.47253,-0.24774169921875,-0.01806640625,0.9794921875,2.250518798828125,0.650482177734375,3.237457275390625,1,1.0,1.0,1.0,1.0,50.00
2022-11-23 20:27:05.573,0.7412627,0.14210834,-0.05025918,0.7538323,1.1302541,0.4746773,0.450195,1.1906698,0.03503366,0.15834752,0.19226986,0.39556336,0.15091124,-0.023414208,-0.06684783,0.13625439,-0.30055583,-0.48713523,-0.2784567,-0.2277089,778.46155,806.6667,811.50183,776.04395,738.5714,-0.24774169921875,-0.01806640625,0.9794921875,2.250518798828125,0.650482177734375,3.237457275390625,1,1.0,1.0,1.0,1.0,50.00
2022-11-23 20:27:05.644,0.7412627,0.14210834,-0.05025918,0.7538323,1.1302541,0.4746773,0.450195,1.1906698,0.03503366,0.15834752,0.19226986,0.39556336,0.15091124,-0.023414208,-0.06684783,0.13625439,-0.30055583,-0.48713523,-0.2784567,-0.2277089,776.8498,807.0696,805.8608,759.92676,807.8755,-0.24774169921875,-0.01806640625,0.9794921875,2.250518798828125,0.650482177734375,3.237457275390625,1,1.0,1.0,1.0,1.0,50.00
2022-11-23 20:27:05.644,0.7412627,0.14210834,-0.05025918,0.7538323,1.1302541,0.4746773,0.450195,1.1906698,0.03503366,0.15834752,0.19226986,0.39556336,0.15091124,-0.023414208,-0.06684783,0.13625439,-0.30055583,-0.48713523,-0.2784567,-0.2277089,725.6777,803.8461,804.2491,722.0513,652.74725,-0.24774169921875,-0.01806640625,0.9794921875,2.250518798828125,0.650482177734375,3.237457275390625,1,1.0,1.0,1.0,1.0,50.00
2022-11-23 20:27:05.644,0.7412627,0.14210834,-0.05025918,0.7538323,1.1302541,0.4746773,0.450195,1.1906698,0.03503366,0.15834752,0.19226986,0.39556336,0.15091124,-0.023414208,-0.06684783,0.13625439,-0.30055583,-0.48713523,-0.2784567,-0.2277089,693.44324,801.02563,807.8755,702.3077,608.8278,-0.24774169921875,-0.01806640625,0.9794921875,2.250518798828125,0.650482177734375,3.237457275390625,1,1.0,1.0,1.0,1.0,50.00
2022-11-23 20:27:05.645,0.7412627,0.14210834,-0.05025918,0.7538323,1.1302541,0.4746773,0.450195,1.1906698,0.03503366,0.15834752,0.19226986,0.39556336,0.15091124,-0.023414208,-0.06684783,0.13625439,-0.30055583,-0.48713523,-0.2784567,-0.2277089,713.9927,804.2491,811.9048,712.381,784.90845,-0.24774169921875,-0.01806640625,0.9794921875,2.250518798828125,0.650482177734375,3.237457275390625,1,1.0,1.0,1.0,1.0,50.00
2022-11-23 20:27:05.645,0.7412627,0.14210834,-0.05025918,0.7538323,1.1302541,0.4746773,0.450195,1.1906698,0.03503366,0.15834752,0.19226986,0.39556336,0.15091124,-0.023414208,-0.06684783,0.13625439,-0.30055583,-0.48713523,-0.2784567,-0.2277089,720.0366,801.4286,812.3077,709.15753,875.16486,-0.24774169921875,-0.01806640625,0.9794921875,2.250518798828125,0.650482177734375,3.237457275390625,1,1.0,1.0,1.0,1.0,50.00
2022-11-23 20:27:05.645,0.7412627,0.14210834,-0.05025918,0.7538323,1.1302541,0.4746773,0.450195,1.1906698,0.03503366,0.15834752,0.19226986,0.39556336,0.15091124,-0.023414208,-0.06684783,0.13625439,-0.30055583,-0.48713523,-0.2784567,-0.2277089,685.38464,799.41394,807.8755,687.3993,780.07324,-0.24774169921875,-0.01806640625,0.9794921875,2.250518798828125,0.650482177734375,3.237457275390625,1,1.0,1.0,1.0,1.0,50.00
2022-11-23 20:27:05.645,0.7412627,0.14210834,-0.05025918,0.7538323,1.1302541,0.4746773,0.450195,1.1906698,0.03503366,0.15834752,0.19226986,0.39556336,0.15091124,-0.023414208,-0.06684783,0.13625439,-0.30055583,-0.48713523,-0.2784567,-0.2277089,653.5531,803.0403,807.8755,666.4469,767.98535,-0.24774169921875,-0.01806640625,0.9794921875,2.250518798828125,0.650482177734375,3.237457275390625,1,1.0,1.0,1.0,1.0,50.00
2022-11-23 20:27:05.645,0.7412627,0.14210834,-0.05025918,0.7538323,1.1302541,0.4746773,0.450195,1.1906698,0.03503366,0.15834752,0.19226986,0.39556336,0.15091124,-0.023414208,-0.06684783,0.13625439,-0.30055583,-0.48713523,-0.2784567,-0.2277089,653.95605,805.05493,812.71063,657.98535,963.4066,-0.24774169921875,-0.01806640625,0.9794921875,2.250518798828125,0.650482177734375,3.237457275390625,1,1.0,1.0,1.0,1.0,50.00
2022-11-23 20:27:05.646,0.7412627,0.14210834,-0.05025918,0.7538323,1.1302541,0.4746773,0.450195,1.1906698,0.03503366,0.15834752,0.19226986,0.39556336,0.15091124,-0.023414208,-0.06684783,0.13625439,-0.30055583,-0.48713523,-0.2784567,-0.2277089,686.1905,804.65204,812.3077,677.326,940.4396,-0.24774169921875,-0.01806640625,0.9794921875,2.250518798828125,0.650482177734375,3.237457275390625,1,1.0,1.0,1.0,1.0,50.00
2022-11-23 20:27:05.646,0.7412627,0.14210834,-0.05025918,0.7538323,1.1302541,0.4746773,0.450195,1.1906698,0.03503366,0.15834752,0.19226986,0.39556336,0.15091124,-0.023414208,-0.06684783,0.13625439,-0.30055583,-0.48713523,-0.2784567,-0.2277089,679.7436,804.2491,811.9048,673.2967,792.5641,-0.24774169921875,-0.01806640625,0.9794921875,2.250518798828125,0.650482177734375,3.237457275390625,1,1.0,1.0,1.0,1.0,50.00
2022-11-23 20:27:05.646,0.7412627,0.14210834,-0.05025918,0.7538323,1.1302541,0.4746773,0.450195,1.1906698,0.03503366,0.15834752,0.19226986,0.39556336,0.15091124,-0.023414208,-0.06684783,0.13625439,-0.30055583,-0.48713523,-0.2784567,-0.2277089,638.24176,803.0403,812.71063,647.9121,664.83514,-0.24774169921875,-0.01806640625,0.9794921875,2.250518798828125,0.650482177734375,3.237457275390625,1,1.0,1.0,1.0,1.0,50.00
2022-11-23 20:27:05.646,0.7412627,0.14210834,-0.05025918,0.7538323,1.1302541,0.4746773,0.450195,1.1906698,0.03503366,0.15834752,0.19226986,0.39556336,0.15091124,-0.023414208,-0.06684783,0.13625439,-0.30055583,-0.48713523,-0.2784567,-0.2277089,642.674,805.05493,811.9048,650.32965,645.4945,-0.24774169921875,-0.01806640625,0.9794921875,2.250518798828125,0.650482177734375,3.237457275390625,1,1.0,1.0,1.0,1.0,50.00
2022-11-23 20:27:05.669,0.7412627,0.14210834,-0.05025918,0.7538323,1.1302541,0.4746773,0.450195,1.1906698,0.03503366,0.15834752,0.19226986,0.39556336,0.15091124,-0.023414208,-0.06684783,0.13625439,-0.30055583,-0.48713523,-0.2784567,-0.2277089,687.8022,810.293,805.05493,673.2967,780.07324,-0.2740478515625,-0.03302001953125,0.96832275390625,3.6187744140625,2.213134765625,0.560760498046875,1,1.0,1.0,1.0,1.0,50.00
2022-11-23 20:27:05.669,0.7412627,0.14210834,-0.05025918,0.7538323,1.1302541,0.4746773,0.450195,1.1906698,0.03503366,0.15834752,0.19226986,0.39556336,0.15091124,-0.023414208,-0.06684783,0.13625439,-0.30055583,-0.48713523,-0.2784567,-0.2277089,694.65204,809.4872,804.65204,671.685,863.47986,-0.2740478515625,-0.03302001953125,0.96832275390625,3.6187744140625,2.213134765625,0.560760498046875,1,1.0,1.0,1.0,1.0,50.00
2022-11-23 20:27:05.669,0.7412627,0.14210834,-0.05025918,0.7538323,1.1302541,0.4746773,0.450195,1.1906698,0.03503366,0.15834752,0.19226986,0.39556336,0.15091124,-0.023414208,-0.06684783,0.13625439,-0.30055583,-0.48713523,-0.2784567,-0.2277089,657.1795,805.8608,803.44324,649.12085,755.89746,-0.2740478515625,-0.03302001953125,0.96832275390625,3.6187744140625,2.213134765625,0.560760498046875,1,1.0,1.0,1.0,1.0,50.00
2022-11-23 20:27:05.670,0.7412627,0.14210834,-0.05025918,0.7538323,1.1302541,0.4746773,0.450195,1.1906698,0.03503366,0.15834752,0.19226986,0.39556336,0.15091124,-0.023414208,-0.06684783,0.13625439,-0.30055583,-0.48713523,-0.2784567,-0.2277089,656.77655,806.6667,805.05493,660.0,674.90845,-0.2740478515625,-0.03302001953125,0.96832275390625,3.6187744140625,2.213134765625,0.560760498046875,1,1.0,1.0,1.0,1.0,50.00
2022-11-23 20:27:05.670,0.7412627,0.14210834,-0.05025918,0.7538323,1.1302541,0.4746773,0.450195,1.1906698,0.03503366,0.15834752,0.19226986,0.39556336,0.15091124,-0.023414208,-0.06684783,0.13625439,-0.30055583,-0.48713523,-0.2784567,-0.2277089,691.02563,804.65204,803.0403,685.78754,786.1172,-0.2740478515625,-0.03302001953125,0.96832275390625,3.6187744140625,2.213134765625,0.560760498046875,1,1.0,1.0,1.0,1.0,50.00
2022-11-23 20:27:05.670,0.7412627,0.14210834,-0.05025918,0.7538323,1.1302541,0.4746773,0.450195,1.1906698,0.03503366,0.15834752,0.19226986,0.39556336,0.15091124,-0.023414208,-0.06684783,0.13625439,-0.30055583,-0.48713523,-0.2784567,-0.2277089,713.9927,801.02563,795.78754,699.4872,953.73627,-0.2740478515625,-0.03302001953125,0.96832275390625,3.6187744140625,2.213134765625,0.560760498046875,1,1.0,1.0,1.0,1.0,50.00
2022-11-23 20:27:05.670,0.7412627,0.14210834,-0.05025918,0.7538323,1.1302541,0.4746773,0.450195,1.1906698,0.03503366,0.15834752,0.19226986,0.39556336,0.15091124,-0.023414208,-0.06684783,0.13625439,-0.30055583,-0.48713523,-0.2784567,-0.2277089,700.696,803.8461,802.23444,697.0696,1060.1099,-0.2740478515625,-0.03302001953125,0.96832275390625,3.6187744140625,2.213134765625,0.560760498046875,1,1.0,1.0,1.0,1.0,50.00
2022-11-23 20:27:05.670,0.7412627,0.14210834,-0.05025918,0.7538323,1.1302541,0.4746773,0.450195,1.1906698,0.03503366,0.15834752,0.19226986,0.39556336,0.15091124,-0.023414208,-0.06684783,0.13625439,-0.30055583,-0.48713523,-0.2784567,-0.2277089,671.685,807.47253,803.44324,687.3993,866.7033,-0.2740478515625,-0.03302001953125,0.96832275390625,3.6187744140625,2.213134765625,0.560760498046875,1,1.0,1.0,1.0,1.0,50.00
2022-11-23 20:27:05.671,0.7412627,0.14210834,-0.05025918,0.7538323,1.1302541,0.4746773,0.450195,1.1906698,0.03503366,0.15834752,0.19226986,0.39556336,0.15091124,-0.023414208,-0.06684783,0.13625439,-0.30055583,-0.48713523,-0.2784567,-0.2277089,697.47253,801.8315,801.4286,706.7399,723.663,-0.2740478515625,-0.03302001953125,0.96832275390625,3.6187744140625,2.213134765625,0.560760498046875,1,1.0,1.0,1.0,1.0,50.00
2022-11-23 20:27:05.671,0.7412627,0.14210834,-0.05025918,0.7538323,1.1302541,0.4746773,0.450195,1.1906698,0.03503366,0.15834752,0.19226986,0.39556336,0.15091124,-0.023414208,-0.06684783,0.13625439,-0.30055583,-0.48713523,-0.2784567,-0.2277089,746.63007,794.57874,798.60803,735.7509,833.663,-0.2740478515625,-0.03302001953125,0.96832275390625,3.6187744140625,2.213134765625,0.560760498046875,1,1.0,1.0,1.0,1.0,50.00
2022-11-23 20:27:05.671,0.7412627,0.14210834,-0.05025918,0.7538323,1.1302541,0.4746773,0.450195,1.1906698,0.03503366,0.15834752,0.19226986,0.39556336,0.15091124,-0.023414208,-0.06684783,0.13625439,-0.30055583,-0.48713523,-0.2784567,-0.2277089,732.9304,799.011,793.36993,723.663,975.4945,-0.2740478515625,-0.03302001953125,0.96832275390625,3.6187744140625,2.213134765625,0.560760498046875,1,1.0,1.0,1.0,1.0,50.00
2022-11-23 20:27:05.671,0.7062914,0.07740931,-0.1012979,0.72959024,1.0897794,0.39734027,0.39941126,1.1566454,0.03197025,0.11816789,0.17922321,0.36445388,0.15462637,-0.034139372,-0.085953005,0.12845859,-0.3216296,-0.4948535,-0.26960564,-0.2431275,703.91943,805.4579,796.1905,709.9634,708.3516,-0.2740478515625,-0.03302001953125,0.96832275390625,3.6187744140625,2.213134765625,0.560760498046875,1,1.0,1.0,1.0,1.0,50.00
2022-11-23 20:27:05.714,0.7062914,0.07740931,-0.1012979,0.72959024,1.0897794,0.39734027,0.39941126,1.1566454,0.03197025,0.11816789,0.17922321,0.36445388,0.15462637,-0.034139372,-0.085953005,0.12845859,-0.3216296,-0.4948535,-0.26960564,-0.2431275,724.87177,800.2198,796.99634,725.6777,601.1722,-0.25360107421875,-0.02508544921875,0.9903564453125,3.75335693359375,1.383209228515625,-2.071075439453125,1,1.0,1.0,1.0,1.0,50.00
2022-11-23 20:27:05.714,0.7062914,0.07740931,-0.1012979,0.72959024,1.0897794,0.39734027,0.39941126,1.1566454,0.03197025,0.11816789,0.17922321,0.36445388,0.15462637,-0.034139372,-0.085953005,0.12845859,-0.3216296,-0.4948535,-0.26960564,-0.2431275,761.13556,801.02563,796.99634,754.68866,916.26373,-0.25360107421875,-0.02508544921875,0.9903564453125,3.75335693359375,1.383209228515625,-2.071075439453125,1,1.0,1.0,1.0,1.0,50.00
2022-11-23 20:27:05.715,0.7062914,0.07740931,-0.1012979,0.72959024,1.0897794,0.39734027,0.39941126,1.1566454,0.03197025,0.11816789,0.17922321,0.36445388,0.15462637,-0.034139372,-0.085953005,0.12845859,-0.3216296,-0.4948535,-0.26960564,-0.2431275,763.95605,803.0403,797.8022,753.8828,990.40295,-0.25360107421875,-0.02508544921875,0.9903564453125,3.75335693359375,1.383209228515625,-2.071075439453125,1,1.0,1.0,1.0,1.0,50.00
2022-11-23 20:27:05.715,0.7062914,0.07740931,-0.1012979,0.72959024,1.0897794,0.39734027,0.39941126,1.1566454,0.03197025,0.11816789,0.17922321,0.36445388,0.15462637,-0.034139372,-0.085953005,0.12845859,-0.3216296,-0.4948535,-0.26960564,-0.2431275,741.39197,803.44324,798.60803,731.31866,715.6044,-0.25360107421875,-0.02508544921875,0.9903564453125,3.75335693359375,1.383209228515625,-2.071075439453125,1,1.0,1.0,1.0,1.0,50.00
2022-11-23 20:27:05.715,0.7062914,0.07740931,-0.1012979,0.72959024,1.0897794,0.39734027,0.39941126,1.1566454,0.03197025,0.11816789,0.17922321,0.36445388,0.15462637,-0.034139372,-0.085953005,0.12845859,-0.3216296,-0.4948535,-0.26960564,-0.2431275,746.2271,807.0696,799.81683,737.76556,580.6227,-0.25360107421875,-0.02508544921875,0.9903564453125,3.75335693359375,1.383209228515625,-2.071075439453125,1,1.0,1.0,1.0,1.0,50.00
2022-11-23 20:27:05.715,0.7062914,0.07740931,-0.1012979,0.72959024,1.0897794,0.39734027,0.39941126,1.1566454,0.03197025,0.11816789,0.17922321,0.36445388,0.15462637,-0.034139372,-0.085953005,0.12845859,-0.3216296,-0.4948535,-0.26960564,-0.2431275,786.1172,808.2784,800.2198,775.64105,799.011,-0.25360107421875,-0.02508544921875,0.9903564453125,3.75335693359375,1.383209228515625,-2.071075439453125,1,1.0,1.0,1.0,1.0,50.00
2022-11-23 20:27:05.716,0.7062914,0.07740931,-0.1012979,0.72959024,1.0897794,0.39734027,0.39941126,1.1566454,0.03197025,0.11816789,0.17922321,0.36445388,0.15462637,-0.034139372,-0.085953005,0.12845859,-0.3216296,-0.4948535,-0.26960564,-0.2431275,797.8022,807.0696,803.0403,791.75824,954.1392,-0.25360107421875,-0.02508544921875,0.9903564453125,3.75335693359375,1.383209228515625,-2.071075439453125,1,1.0,1.0,1.0,1.0,50.00
2022-11-23 20:27:05.716,0.7062914,0.07740931,-0.1012979,0.72959024,1.0897794,0.39734027,0.39941126,1.1566454,0.03197025,0.11816789,0.17922321,0.36445388,0.15462637,-0.034139372,-0.085953005,0.12845859,-0.3216296,-0.4948535,-0.26960564,-0.2431275,771.6117,809.4872,805.05493,774.43225,701.0989,-0.25360107421875,-0.02508544921875,0.9903564453125,3.75335693359375,1.383209228515625,-2.071075439453125,1,1.0,1.0,1.0,1.0,50.00
2022-11-23 20:27:05.716,0.7062914,0.07740931,-0.1012979,0.72959024,1.0897794,0.39734027,0.39941126,1.1566454,0.03197025,0.11816789,0.17922321,0.36445388,0.15462637,-0.034139372,-0.085953005,0.12845859,-0.3216296,-0.4948535,-0.26960564,-0.2431275,765.9707,813.5165,800.2198,762.3443,564.5055,-0.25360107421875,-0.02508544921875,0.9903564453125,3.75335693359375,1.383209228515625,-2.071075439453125,1,1.0,1.0,1.0,1.0,50.00
2022-11-23 20:27:05.716,0.7062914,0.07740931,-0.1012979,0.72959024,1.0897794,0.39734027,0.39941126,1.1566454,0.03197025,0.11816789,0.17922321,0.36445388,0.15462637,-0.034139372,-0.085953005,0.12845859,-0.3216296,-0.4948535,-0.26960564,-0.2431275,801.8315,811.9048,801.8315,795.78754,896.1172,-0.25360107421875,-0.02508544921875,0.9903564453125,3.75335693359375,1.383209228515625,-2.071075439453125,1,1.0,1.0,1.0,1.0,50.00
2022-11-23 20:27:05.717,0.7062914,0.07740931,-0.1012979,0.72959024,1.0897794,0.39734027,0.39941126,1.1566454,0.03197025,0.11816789,0.17922321,0.36445388,0.15462637,-0.034139372,-0.085953005,0.12845859,-0.3216296,-0.4948535,-0.26960564,-0.2431275,823.9927,811.50183,805.8608,810.696,1088.3151,-0.25360107421875,-0.02508544921875,0.9903564453125,3.75335693359375,1.383209228515625,-2.071075439453125,1,1.0,1.0,1.0,1.0,50.00
2022-11-23 20:27:05.717,0.7062914,0.07740931,-0.1012979,0.72959024,1.0897794,0.39734027,0.39941126,1.1566454,0.03197025,0.11816789,0.17922321,0.36445388,0.15462637,-0.034139372,-0.085953005,0.12845859,-0.3216296,-0.4948535,-0.26960564,-0.2431275,808.2784,813.91943,803.44324,788.1319,786.9231,-0.25360107421875,-0.02508544921875,0.9903564453125,3.75335693359375,1.383209228515625,-2.071075439453125,1,1.0,1.0,1.0,1.0,50.00
2022-11-23 20:27:05.761,0.7062914,0.07740931,-0.1012979,0.72959024,1.0897794,0.39734027,0.39941126,1.1566454,0.03197025,0.11816789,0.17922321,0.36445388,0.15462637,-0.034139372,-0.085953005,0.12845859,-0.3216296,-0.4948535,-0.26960564,-0.2431275,787.326,810.696,800.6227,782.8938,623.73627,-0.2576904296875,-0.02197265625,0.994384765625,2.833709716796875,-0.3289794921875,0.5682373046875,1,1.0,1.0,1.0,1.0,50.00
2022-11-23 20:27:05.761,0.7062914,0.07740931,-0.1012979,0.72959024,1.0897794,0.39734027,0.39941126,1.1566454,0.03197025,0.11816789,0.17922321,0.36445388,0.15462637,-0.034139372,-0.085953005,0.12845859,-0.3216296,-0.4948535,-0.26960564,-0.2431275,804.2491,809.0842,804.65204,798.60803,759.12085,-0.2576904296875,-0.02197265625,0.994384765625,2.833709716796875,-0.3289794921875,0.5682373046875,1,1.0,1.0,1.0,1.0,50.00
2022-11-23 20:27:05.761,0.7062914,0.07740931,-0.1012979,0.72959024,1.0897794,0.39734027,0.39941126,1.1566454,0.03197025,0.11816789,0.17922321,0.36445388,0.15462637,-0.034139372,-0.085953005,0.12845859,-0.3216296,-0.4948535,-0.26960564,-0.2431275,835.6777,809.0842,806.6667,819.9634,873.95605,-0.2576904296875,-0.02197265625,0.994384765625,2.833709716796875,-0.3289794921875,0.5682373046875,1,1.0,1.0,1.0,1.0,50.00
2022-11-23 20:27:05.762,0.7062914,0.07740931,-0.1012979,0.72959024,1.0897794,0.39734027,0.39941126,1.1566454,0.03197025,0.11816789,0.17922321,0.36445388,0.15462637,-0.034139372,-0.085953005,0.12845859,-0.3216296,-0.4948535,-0.26960564,-0.2431275,828.8278,800.6227,808.2784,815.9341,792.5641,-0.2576904296875,-0.02197265625,0.994384765625,2.833709716796875,-0.3289794921875,0.5682373046875,1,1.0,1.0,1.0,1.0,50.00
2022-11-23 20:27:05.762,0.7062914,0.07740931,-0.1012979,0.72959024,1.0897794,0.39734027,0.39941126,1.1566454,0.03197025,0.11816789,0.17922321,0.36445388,0.15462637,-0.034139372,-0.085953005,0.12845859,-0.3216296,-0.4948535,-0.26960564,-0.2431275,805.05493,805.05493,808.2784,794.9817,666.4469,-0.2576904296875,-0.02197265625,0.994384765625,2.833709716796875,-0.3289794921875,0.5682373046875,1,1.0,1.0,1.0,1.0,50.00
2022-11-23 20:27:05.762,0.7062914,0.07740931,-0.1012979,0.72959024,1.0897794,0.39734027,0.39941126,1.1566454,0.03197025,0.11816789,0.17922321,0.36445388,0.15462637,-0.034139372,-0.085953005,0.12845859,-0.3216296,-0.4948535,-0.26960564,-0.2431275,806.26373,819.5604,801.8315,803.0403,723.663,-0.2576904296875,-0.02197265625,0.994384765625,2.833709716796875,-0.3289794921875,0.5682373046875,1,1.0,1.0,1.0,1.0,50.00
2022-11-23 20:27:05.762,0.7062914,0.07740931,-0.1012979,0.72959024,1.0897794,0.39734027,0.39941126,1.1566454,0.03197025,0.11816789,0.17922321,0.36445388,0.15462637,-0.034139372,-0.085953005,0.12845859,-0.3216296,-0.4948535,-0.26960564,-0.2431275,837.6923,822.381,795.78754,832.0513,865.89746,-0.2576904296875,-0.02197265625,0.994384765625,2.833709716796875,-0.3289794921875,0.5682373046875,1,1.0,1.0,1.0,1.0,50.00
2022-11-23 20:27:05.762,0.7062914,0.07740931,-0.1012979,0.72959024,1.0897794,0.39734027,0.39941126,1.1566454,0.03197025,0.11816789,0.17922321,0.36445388,0.15462637,-0.034139372,-0.085953005,0.12845859,-0.3216296,-0.4948535,-0.26960564,-0.2431275,838.0952,816.7399,798.60803,830.0366,844.1392,-0.2576904296875,-0.02197265625,0.994384765625,2.833709716796875,-0.3289794921875,0.5682373046875,1,1.0,1.0,1.0,1.0,50.00
2022-11-23 20:27:05.763,0.7062914,0.07740931,-0.1012979,0.72959024,1.0897794,0.39734027,0.39941126,1.1566454,0.03197025,0.11816789,0.17922321,0.36445388,0.15462637,-0.034139372,-0.085953005,0.12845859,-0.3216296,-0.4948535,-0.26960564,-0.2431275,807.47253,812.71063,801.02563,811.50183,701.0989,-0.2576904296875,-0.02197265625,0.994384765625,2.833709716796875,-0.3289794921875,0.5682373046875,1,1.0,1.0,1.0,1.0,50.00
2022-11-23 20:27:05.763,0.7062914,0.07740931,-0.1012979,0.72959024,1.0897794,0.39734027,0.39941126,1.1566454,0.03197025,0.11816789,0.17922321,0.36445388,0.15462637,-0.034139372,-0.085953005,0.12845859,-0.3216296,-0.4948535,-0.26960564,-0.2431275,811.0989,811.9048,800.2198,822.7839,854.61536,-0.2576904296875,-0.02197265625,0.994384765625,2.833709716796875,-0.3289794921875,0.5682373046875,1,1.0,1.0,1.0,1.0,50.00
2022-11-23 20:27:05.763,0.7062914,0.07740931,-0.1012979,0.72959024,1.0897794,0.39734027,0.39941126,1.1566454,0.03197025,0.11816789,0.17922321,0.36445388,0.15462637,-0.034139372,-0.085953005,0.12845859,-0.3216296,-0.4948535,-0.26960564,-0.2431275,843.3333,806.6667,798.20514,838.9011,898.1319,-0.2576904296875,-0.02197265625,0.994384765625,2.833709716796875,-0.3289794921875,0.5682373046875,1,1.0,1.0,1.0,1.0,50.00
2022-11-23 20:27:05.763,0.7062914,0.07740931,-0.1012979,0.72959024,1.0897794,0.39734027,0.39941126,1.1566454,0.03197025,0.11816789,0.17922321,0.36445388,0.15462637,-0.034139372,-0.085953005,0.12845859,-0.3216296,-0.4948535,-0.26960564,-0.2431275,848.97437,802.6374,798.60803,831.6484,805.4579,-0.2576904296875,-0.02197265625,0.994384765625,2.833709716796875,-0.3289794921875,0.5682373046875,1,1.0,1.0,1.0,1.0,50.00
2022-11-23 20:27:05.810,0.7062914,0.07740931,-0.1012979,0.72959024,1.0897794,0.39734027,0.39941126,1.1566454,0.03197025,0.11816789,0.17922321,0.36445388,0.15462637,-0.034139372,-0.085953005,0.12845859,-0.3216296,-0.4948535,-0.26960564,-0.2431275,818.3516,806.6667,804.2491,813.91943,743.8095,-0.2646484375,-0.030029296875,0.97723388671875,1.891632080078125,0.919647216796875,0.545806884765625,1,1.0,1.0,1.0,1.0,50.00
2022-11-23 20:27:05,,,,,,,,,,,,,,,,,,,,,,,,,,,,,,,,,,,,,,/muse/elements/blink
2022-11-23 20:27:05.811,0.6428974,-0.001375964,-0.15890533,0.68475217,1.0201732,0.28539547,0.3274573,1.1003906,0.019001022,0.110916965,0.17488877,0.34295973,0.1606965,-0.041583586,-0.11063285,0.13048197,-0.34285545,-0.505843,-0.25763783,-0.26065063,805.8608,809.4872,802.23444,809.89014,696.26373,-0.2646484375,-0.030029296875,0.97723388671875,1.891632080078125,0.919647216796875,0.545806884765625,1,1.0,1.0,1.0,1.0,50.00
2022-11-23 20:27:05.812,0.6428974,-0.001375964,-0.15890533,0.68475217,1.0201732,0.28539547,0.3274573,1.1003906,0.019001022,0.110916965,0.17488877,0.34295973,0.1606965,-0.041583586,-0.11063285,0.13048197,-0.34285545,-0.505843,-0.25763783,-0.26065063,834.87177,805.4579,797.3993,824.7985,761.9414,-0.2646484375,-0.030029296875,0.97723388671875,1.891632080078125,0.919647216796875,0.545806884765625,1,1.0,1.0,1.0,1.0,50.00
2022-11-23 20:27:05.812,0.6428974,-0.001375964,-0.15890533,0.68475217,1.0201732,0.28539547,0.3274573,1.1003906,0.019001022,0.110916965,0.17488877,0.34295973,0.1606965,-0.041583586,-0.11063285,0.13048197,-0.34285545,-0.505843,-0.25763783,-0.26065063,845.7509,800.6227,796.5934,845.34796,934.3956,-0.2646484375,-0.030029296875,0.97723388671875,1.891632080078125,0.919647216796875,0.545806884765625,1,1.0,1.0,1.0,1.0,50.00
2022-11-23 20:27:05.813,0.6428974,-0.001375964,-0.15890533,0.68475217,1.0201732,0.28539547,0.3274573,1.1003906,0.019001022,0.110916965,0.17488877,0.34295973,0.1606965,-0.041583586,-0.11063285,0.13048197,-0.34285545,-0.505843,-0.25763783,-0.26065063,824.7985,797.8022,796.99634,834.87177,925.5311,-0.2646484375,-0.030029296875,0.97723388671875,1.891632080078125,0.919647216796875,0.545806884765625,1,1.0,1.0,1.0,1.0,50.00
2022-11-23 20:27:05.813,0.6428974,-0.001375964,-0.15890533,0.68475217,1.0201732,0.28539547,0.3274573,1.1003906,0.019001022,0.110916965,0.17488877,0.34295973,0.1606965,-0.041583586,-0.11063285,0.13048197,-0.34285545,-0.505843,-0.25763783,-0.26065063,805.8608,799.41394,797.8022,816.7399,840.10986,-0.2646484375,-0.030029296875,0.97723388671875,1.891632080078125,0.919647216796875,0.545806884765625,1,1.0,1.0,1.0,1.0,50.00
2022-11-23 20:27:05.813,0.6428974,-0.001375964,-0.15890533,0.68475217,1.0201732,0.28539547,0.3274573,1.1003906,0.019001022,0.110916965,0.17488877,0.34295973,0.1606965,-0.041583586,-0.11063285,0.13048197,-0.34285545,-0.505843,-0.25763783,-0.26065063,818.3516,799.011,797.3993,826.4103,915.8608,-0.2646484375,-0.030029296875,0.97723388671875,1.891632080078125,0.919647216796875,0.545806884765625,1,1.0,1.0,1.0,1.0,50.00
2022-11-23 20:27:05.813,0.6428974,-0.001375964,-0.15890533,0.68475217,1.0201732,0.28539547,0.3274573,1.1003906,0.019001022,0.110916965,0.17488877,0.34295973,0.1606965,-0.041583586,-0.11063285,0.13048197,-0.34285545,-0.505843,-0.25763783,-0.26065063,847.3626,798.20514,800.2198,841.31866,940.4396,-0.2646484375,-0.030029296875,0.97723388671875,1.891632080078125,0.919647216796875,0.545806884765625,1,1.0,1.0,1.0,1.0,50.00
2022-11-23 20:27:05.813,0.6428974,-0.001375964,-0.15890533,0.68475217,1.0201732,0.28539547,0.3274573,1.1003906,0.019001022,0.110916965,0.17488877,0.34295973,0.1606965,-0.041583586,-0.11063285,0.13048197,-0.34285545,-0.505843,-0.25763783,-0.26065063,839.707,799.011,795.78754,831.2454,1034.3224,-0.2646484375,-0.030029296875,0.97723388671875,1.891632080078125,0.919647216796875,0.545806884765625,1,1.0,1.0,1.0,1.0,50.00
2022-11-23 20:27:05.814,0.6428974,-0.001375964,-0.15890533,0.68475217,1.0201732,0.28539547,0.3274573,1.1003906,0.019001022,0.110916965,0.17488877,0.34295973,0.1606965,-0.041583586,-0.11063285,0.13048197,-0.34285545,-0.505843,-0.25763783,-0.26065063,809.0842,801.02563,794.9817,814.3223,1007.326,-0.2646484375,-0.030029296875,0.97723388671875,1.891632080078125,0.919647216796875,0.545806884765625,1,1.0,1.0,1.0,1.0,50.00
2022-11-23 20:27:05.814,0.6428974,-0.001375964,-0.15890533,0.68475217,1.0201732,0.28539547,0.3274573,1.1003906,0.019001022,0.110916965,0.17488877,0.34295973,0.1606965,-0.041583586,-0.11063285,0.13048197,-0.34285545,-0.505843,-0.25763783,-0.26065063,811.0989,799.41394,797.8022,817.1429,692.23444,-0.2646484375,-0.030029296875,0.97723388671875,1.891632080078125,0.919647216796875,0.545806884765625,1,1.0,1.0,1.0,1.0,50.00
2022-11-23 20:27:05.814,0.6428974,-0.001375964,-0.15890533,0.68475217,1.0201732,0.28539547,0.3274573,1.1003906,0.019001022,0.110916965,0.17488877,0.34295973,0.1606965,-0.041583586,-0.11063285,0.13048197,-0.34285545,-0.505843,-0.25763783,-0.26065063,844.1392,796.5934,799.41394,841.31866,759.5238,-0.2646484375,-0.030029296875,0.97723388671875,1.891632080078125,0.919647216796875,0.545806884765625,1,1.0,1.0,1.0,1.0,50.00
2022-11-23 20:27:05.872,0.6428974,-0.001375964,-0.15890533,0.68475217,1.0201732,0.28539547,0.3274573,1.1003906,0.019001022,0.110916965,0.17488877,0.34295973,0.1606965,-0.041583586,-0.11063285,0.13048197,-0.34285545,-0.505843,-0.25763783,-0.26065063,841.31866,795.38464,797.3993,840.9158,850.58606,-0.2646484375,-0.030029296875,0.97723388671875,1.891632080078125,0.919647216796875,0.545806884765625,1,1.0,1.0,1.0,1.0,50.00
2022-11-23 20:27:05.872,0.6428974,-0.001375964,-0.15890533,0.68475217,1.0201732,0.28539547,0.3274573,1.1003906,0.019001022,0.110916965,0.17488877,0.34295973,0.1606965,-0.041583586,-0.11063285,0.13048197,-0.34285545,-0.505843,-0.25763783,-0.26065063,803.0403,796.99634,793.7729,810.293,630.18317,-0.2646484375,-0.030029296875,0.97723388671875,1.891632080078125,0.919647216796875,0.545806884765625,1,1.0,1.0,1.0,1.0,50.00
2022-11-23 20:27:05.873,0.6428974,-0.001375964,-0.15890533,0.68475217,1.0201732,0.28539547,0.3274573,1.1003906,0.019001022,0.110916965,0.17488877,0.34295973,0.1606965,-0.041583586,-0.11063285,0.13048197,-0.34285545,-0.505843,-0.25763783,-0.26065063,797.3993,801.8315,799.81683,812.71063,537.1062,-0.2646484375,-0.030029296875,0.97723388671875,1.891632080078125,0.919647216796875,0.545806884765625,1,1.0,1.0,1.0,1.0,50.00
2022-11-23 20:27:05.873,0.6428974,-0.001375964,-0.15890533,0.68475217,1.0201732,0.28539547,0.3274573,1.1003906,0.019001022,0.110916965,0.17488877,0.34295973,0.1606965,-0.041583586,-0.11063285,0.13048197,-0.34285545,-0.505843,-0.25763783,-0.26065063,836.08057,802.23444,804.65204,845.34796,718.8278,-0.2646484375,-0.030029296875,0.97723388671875,1.891632080078125,0.919647216796875,0.545806884765625,1,1.0,1.0,1.0,1.0,50.00
2022-11-23 20:27:05.873,0.6428974,-0.001375964,-0.15890533,0.68475217,1.0201732,0.28539547,0.3274573,1.1003906,0.019001022,0.110916965,0.17488877,0.34295973,0.1606965,-0.041583586,-0.11063285,0.13048197,-0.34285545,-0.505843,-0.25763783,-0.26065063,847.3626,802.6374,802.23444,853.8095,909.81683,-0.2646484375,-0.030029296875,0.97723388671875,1.891632080078125,0.919647216796875,0.545806884765625,1,1.0,1.0,1.0,1.0,50.00
2022-11-23 20:27:05.873,0.6428974,-0.001375964,-0.15890533,0.68475217,1.0201732,0.28539547,0.3274573,1.1003906,0.019001022,0.110916965,0.17488877,0.34295973,0.1606965,-0.041583586,-0.11063285,0.13048197,-0.34285545,-0.505843,-0.25763783,-0.26065063,805.8608,802.23444,796.5934,818.3516,777.6557,-0.2646484375,-0.030029296875,0.97723388671875,1.891632080078125,0.919647216796875,0.545806884765625,1,1.0,1.0,1.0,1.0,50.00
2022-11-23 20:27:05.874,0.6428974,-0.001375964,-0.15890533,0.68475217,1.0201732,0.28539547,0.3274573,1.1003906,0.019001022,0.110916965,0.17488877,0.34295973,0.1606965,-0.041583586,-0.11063285,0.13048197,-0.34285545,-0.505843,-0.25763783,-0.26065063,795.38464,800.2198,794.57874,803.44324,658.7912,-0.2646484375,-0.030029296875,0.97723388671875,1.891632080078125,0.919647216796875,0.545806884765625,1,1.0,1.0,1.0,1.0,50.00
2022-11-23 20:27:05.874,0.6428974,-0.001375964,-0.15890533,0.68475217,1.0201732,0.28539547,0.3274573,1.1003906,0.019001022,0.110916965,0.17488877,0.34295973,0.1606965,-0.041583586,-0.11063285,0.13048197,-0.34285545,-0.505843,-0.25763783,-0.26065063,824.3956,804.2491,801.02563,833.663,724.4689,-0.2646484375,-0.030029296875,0.97723388671875,1.891632080078125,0.919647216796875,0.545806884765625,1,1.0,1.0,1.0,1.0,50.00
2022-11-23 20:27:05.874,0.6428974,-0.001375964,-0.15890533,0.68475217,1.0201732,0.28539547,0.3274573,1.1003906,0.019001022,0.110916965,0.17488877,0.34295973,0.1606965,-0.041583586,-0.11063285,0.13048197,-0.34285545,-0.505843,-0.25763783,-0.26065063,843.73627,805.8608,799.81683,847.76556,990.40295,-0.2646484375,-0.030029296875,0.97723388671875,1.891632080078125,0.919647216796875,0.545806884765625,1,1.0,1.0,1.0,1.0,50.00
2022-11-23 20:27:05.875,0.6428974,-0.001375964,-0.15890533,0.68475217,1.0201732,0.28539547,0.3274573,1.1003906,0.019001022,0.110916965,0.17488877,0.34295973,0.1606965,-0.041583586,-0.11063285,0.13048197,-0.34285545,-0.505843,-0.25763783,-0.26065063,829.2308,801.02563,799.41394,826.4103,880.80585,-0.2646484375,-0.030029296875,0.97723388671875,1.891632080078125,0.919647216796875,0.545806884765625,1,1.0,1.0,1.0,1.0,50.00
2022-11-23 20:27:05.875,0.6428974,-0.001375964,-0.15890533,0.68475217,1.0201732,0.28539547,0.3274573,1.1003906,0.019001022,0.110916965,0.17488877,0.34295973,0.1606965,-0.041583586,-0.11063285,0.13048197,-0.34285545,-0.505843,-0.25763783,-0.26065063,803.44324,797.8022,805.8608,808.68134,565.7143,-0.2646484375,-0.030029296875,0.97723388671875,1.891632080078125,0.919647216796875,0.545806884765625,1,1.0,1.0,1.0,1.0,50.00
2022-11-23 20:27:05.875,0.6428974,-0.001375964,-0.15890533,0.68475217,1.0201732,0.28539547,0.3274573,1.1003906,0.019001022,0.110916965,0.17488877,0.34295973,0.1606965,-0.041583586,-0.11063285,0.13048197,-0.34285545,-0.505843,-0.25763783,-0.26065063,815.12823,803.44324,801.4286,823.5897,610.84247,-0.2646484375,-0.030029296875,0.97723388671875,1.891632080078125,0.919647216796875,0.545806884765625,1,1.0,1.0,1.0,1.0,50.00
2022-11-23 20:27:05.898,0.6428974,-0.001375964,-0.15890533,0.68475217,1.0201732,0.28539547,0.3274573,1.1003906,0.019001022,0.110916965,0.17488877,0.34295973,0.1606965,-0.041583586,-0.11063285,0.13048197,-0.34285545,-0.505843,-0.25763783,-0.26065063,845.7509,809.89014,803.8461,848.5714,790.14655,-0.26812744140625,-0.0341796875,0.9814453125,2.175750732421875,0.874786376953125,-0.665435791015625,1,1.0,1.0,1.0,1.0,50.00
2022-11-23 20:27:05.898,0.6428974,-0.001375964,-0.15890533,0.68475217,1.0201732,0.28539547,0.3274573,1.1003906,0.019001022,0.110916965,0.17488877,0.34295973,0.1606965,-0.041583586,-0.11063285,0.13048197,-0.34285545,-0.505843,-0.25763783,-0.26065063,839.707,807.47253,808.68134,844.5421,792.96704,-0.26812744140625,-0.0341796875,0.9814453125,2.175750732421875,0.874786376953125,-0.665435791015625,1,1.0,1.0,1.0,1.0,50.00
2022-11-23 20:27:05.898,0.6428974,-0.001375964,-0.15890533,0.68475217,1.0201732,0.28539547,0.3274573,1.1003906,0.019001022,0.110916965,0.17488877,0.34295973,0.1606965,-0.041583586,-0.11063285,0.13048197,-0.34285545,-0.505843,-0.25763783,-0.26065063,804.2491,805.4579,808.2784,820.7692,608.8278,-0.26812744140625,-0.0341796875,0.9814453125,2.175750732421875,0.874786376953125,-0.665435791015625,1,1.0,1.0,1.0,1.0,50.00
2022-11-23 20:27:05.899,0.56202435,-0.079248965,-0.20168765,0.628908,0.911553,0.13945374,0.23175396,1.0118893,0.019001022,0.103014655,0.1703506,0.29520205,0.1617632,-0.04480197,-0.13131732,0.13435861,-0.35664764,-0.51805395,-0.24583021,-0.27682084,809.0842,804.65204,811.50183,824.3956,637.4359,-0.26812744140625,-0.0341796875,0.9814453125,2.175750732421875,0.874786376953125,-0.665435791015625,1,1.0,1.0,1.0,1.0,50.00
2022-11-23 20:27:05.901,0.56202435,-0.079248965,-0.20168765,0.628908,0.911553,0.13945374,0.23175396,1.0118893,0.019001022,0.103014655,0.1703506,0.29520205,0.1617632,-0.04480197,-0.13131732,0.13435861,-0.35664764,-0.51805395,-0.24583021,-0.27682084,846.55676,802.23444,811.50183,847.76556,833.2601,-0.26812744140625,-0.0341796875,0.9814453125,2.175750732421875,0.874786376953125,-0.665435791015625,1,1.0,1.0,1.0,1.0,50.00
2022-11-23 20:27:05.901,0.56202435,-0.079248965,-0.20168765,0.628908,0.911553,0.13945374,0.23175396,1.0118893,0.019001022,0.103014655,0.1703506,0.29520205,0.1617632,-0.04480197,-0.13131732,0.13435861,-0.35664764,-0.51805395,-0.24583021,-0.27682084,845.34796,801.02563,809.4872,843.73627,851.39197,-0.26812744140625,-0.0341796875,0.9814453125,2.175750732421875,0.874786376953125,-0.665435791015625,1,1.0,1.0,1.0,1.0,50.00
2022-11-23 20:27:05.901,0.56202435,-0.079248965,-0.20168765,0.628908,0.911553,0.13945374,0.23175396,1.0118893,0.019001022,0.103014655,0.1703506,0.29520205,0.1617632,-0.04480197,-0.13131732,0.13435861,-0.35664764,-0.51805395,-0.24583021,-0.27682084,817.1429,804.65204,813.1135,821.1722,706.7399,-0.26812744140625,-0.0341796875,0.9814453125,2.175750732421875,0.874786376953125,-0.665435791015625,1,1.0,1.0,1.0,1.0,50.00
2022-11-23 20:27:05.901,0.56202435,-0.079248965,-0.20168765,0.628908,0.911553,0.13945374,0.23175396,1.0118893,0.019001022,0.103014655,0.1703506,0.29520205,0.1617632,-0.04480197,-0.13131732,0.13435861,-0.35664764,-0.51805395,-0.24583021,-0.27682084,811.9048,807.0696,816.337,821.5751,803.0403,-0.26812744140625,-0.0341796875,0.9814453125,2.175750732421875,0.874786376953125,-0.665435791015625,1,1.0,1.0,1.0,1.0,50.00
2022-11-23 20:27:05.902,0.56202435,-0.079248965,-0.20168765,0.628908,0.911553,0.13945374,0.23175396,1.0118893,0.019001022,0.103014655,0.1703506,0.29520205,0.1617632,-0.04480197,-0.13131732,0.13435861,-0.35664764,-0.51805395,-0.24583021,-0.27682084,837.6923,807.8755,813.5165,848.1685,1145.5311,-0.26812744140625,-0.0341796875,0.9814453125,2.175750732421875,0.874786376953125,-0.665435791015625,1,1.0,1.0,1.0,1.0,50.00
2022-11-23 20:27:05.902,0.56202435,-0.079248965,-0.20168765,0.628908,0.911553,0.13945374,0.23175396,1.0118893,0.019001022,0.103014655,0.1703506,0.29520205,0.1617632,-0.04480197,-0.13131732,0.13435861,-0.35664764,-0.51805395,-0.24583021,-0.27682084,852.1978,809.89014,812.71063,848.1685,996.8498,-0.26812744140625,-0.0341796875,0.9814453125,2.175750732421875,0.874786376953125,-0.665435791015625,1,1.0,1.0,1.0,1.0,50.00
2022-11-23 20:27:05.902,0.56202435,-0.079248965,-0.20168765,0.628908,0.911553,0.13945374,0.23175396,1.0118893,0.019001022,0.103014655,0.1703506,0.29520205,0.1617632,-0.04480197,-0.13131732,0.13435861,-0.35664764,-0.51805395,-0.24583021,-0.27682084,828.4249,809.0842,815.12823,821.5751,686.5934,-0.26812744140625,-0.0341796875,0.9814453125,2.175750732421875,0.874786376953125,-0.665435791015625,1,1.0,1.0,1.0,1.0,50.00
2022-11-23 20:27:05.902,0.56202435,-0.079248965,-0.20168765,0.628908,0.911553,0.13945374,0.23175396,1.0118893,0.019001022,0.103014655,0.1703506,0.29520205,0.1617632,-0.04480197,-0.13131732,0.13435861,-0.35664764,-0.51805395,-0.24583021,-0.27682084,805.4579,809.4872,813.91943,809.4872,676.9231,-0.26812744140625,-0.0341796875,0.9814453125,2.175750732421875,0.874786376953125,-0.665435791015625,1,1.0,1.0,1.0,1.0,50.00
2022-11-23 20:27:05.952,0.56202435,-0.079248965,-0.20168765,0.628908,0.911553,0.13945374,0.23175396,1.0118893,0.019001022,0.103014655,0.1703506,0.29520205,0.1617632,-0.04480197,-0.13131732,0.13435861,-0.35664764,-0.51805395,-0.24583021,-0.27682084,823.9927,813.1135,813.5165,832.0513,767.5824,-0.26885986328125,-0.04193115234375,0.9781494140625,2.385101318359375,0.179443359375,-1.07666015625,1,1.0,1.0,1.0,1.0,50.00
2022-11-23 20:27:05.953,0.56202435,-0.079248965,-0.20168765,0.628908,0.911553,0.13945374,0.23175396,1.0118893,0.019001022,0.103014655,0.1703506,0.29520205,0.1617632,-0.04480197,-0.13131732,0.13435861,-0.35664764,-0.51805395,-0.24583021,-0.27682084,841.7216,811.9048,813.1135,843.73627,818.3516,-0.26885986328125,-0.04193115234375,0.9781494140625,2.385101318359375,0.179443359375,-1.07666015625,1,1.0,1.0,1.0,1.0,50.00
2022-11-23 20:27:05.953,0.56202435,-0.079248965,-0.20168765,0.628908,0.911553,0.13945374,0.23175396,1.0118893,0.019001022,0.103014655,0.1703506,0.29520205,0.1617632,-0.04480197,-0.13131732,0.13435861,-0.35664764,-0.51805395,-0.24583021,-0.27682084,825.6044,811.9048,809.89014,830.0366,743.00366,-0.26885986328125,-0.04193115234375,0.9781494140625,2.385101318359375,0.179443359375,-1.07666015625,1,1.0,1.0,1.0,1.0,50.00
2022-11-23 20:27:05.953,0.56202435,-0.079248965,-0.20168765,0.628908,0.911553,0.13945374,0.23175396,1.0118893,0.019001022,0.103014655,0.1703506,0.29520205,0.1617632,-0.04480197,-0.13131732,0.13435861,-0.35664764,-0.51805395,-0.24583021,-0.27682084,797.8022,811.9048,811.0989,809.89014,642.27106,-0.26885986328125,-0.04193115234375,0.9781494140625,2.385101318359375,0.179443359375,-1.07666015625,1,1.0,1.0,1.0,1.0,50.00
2022-11-23 20:27:05.953,0.56202435,-0.079248965,-0.20168765,0.628908,0.911553,0.13945374,0.23175396,1.0118893,0.019001022,0.103014655,0.1703506,0.29520205,0.1617632,-0.04480197,-0.13131732,0.13435861,-0.35664764,-0.51805395,-0.24583021,-0.27682084,809.89014,811.9048,813.5165,815.9341,711.978,-0.26885986328125,-0.04193115234375,0.9781494140625,2.385101318359375,0.179443359375,-1.07666015625,1,1.0,1.0,1.0,1.0,50.00
2022-11-23 20:27:05.954,0.56202435,-0.079248965,-0.20168765,0.628908,0.911553,0.13945374,0.23175396,1.0118893,0.019001022,0.103014655,0.1703506,0.29520205,0.1617632,-0.04480197,-0.13131732,0.13435861,-0.35664764,-0.51805395,-0.24583021,-0.27682084,844.5421,811.9048,815.12823,832.4542,947.6923,-0.26885986328125,-0.04193115234375,0.9781494140625,2.385101318359375,0.179443359375,-1.07666015625,1,1.0,1.0,1.0,1.0,50.00
2022-11-23 20:27:05.954,0.56202435,-0.079248965,-0.20168765,0.628908,0.911553,0.13945374,0.23175396,1.0118893,0.019001022,0.103014655,0.1703506,0.29520205,0.1617632,-0.04480197,-0.13131732,0.13435861,-0.35664764,-0.51805395,-0.24583021,-0.27682084,832.0513,808.68134,809.0842,818.3516,1058.0952,-0.26885986328125,-0.04193115234375,0.9781494140625,2.385101318359375,0.179443359375,-1.07666015625,1,1.0,1.0,1.0,1.0,50.00
2022-11-23 20:27:05.954,0.56202435,-0.079248965,-0.20168765,0.628908,0.911553,0.13945374,0.23175396,1.0118893,0.019001022,0.103014655,0.1703506,0.29520205,0.1617632,-0.04480197,-0.13131732,0.13435861,-0.35664764,-0.51805395,-0.24583021,-0.27682084,796.1905,807.47253,806.26373,797.3993,987.1795,-0.26885986328125,-0.04193115234375,0.9781494140625,2.385101318359375,0.179443359375,-1.07666015625,1,1.0,1.0,1.0,1.0,50.00
2022-11-23 20:27:05.954,0.56202435,-0.079248965,-0.20168765,0.628908,0.911553,0.13945374,0.23175396,1.0118893,0.019001022,0.103014655,0.1703506,0.29520205,0.1617632,-0.04480197,-0.13131732,0.13435861,-0.35664764,-0.51805395,-0.24583021,-0.27682084,795.38464,807.47253,809.4872,797.3993,805.05493,-0.26885986328125,-0.04193115234375,0.9781494140625,2.385101318359375,0.179443359375,-1.07666015625,1,1.0,1.0,1.0,1.0,50.00
2022-11-23 20:27:05.955,0.56202435,-0.079248965,-0.20168765,0.628908,0.911553,0.13945374,0.23175396,1.0118893,0.019001022,0.103014655,0.1703506,0.29520205,0.1617632,-0.04480197,-0.13131732,0.13435861,-0.35664764,-0.51805395,-0.24583021,-0.27682084,825.2015,807.0696,807.8755,810.293,776.04395,-0.26885986328125,-0.04193115234375,0.9781494140625,2.385101318359375,0.179443359375,-1.07666015625,1,1.0,1.0,1.0,1.0,50.00
2022-11-23 20:27:05.955,0.56202435,-0.079248965,-0.20168765,0.628908,0.911553,0.13945374,0.23175396,1.0118893,0.019001022,0.103014655,0.1703506,0.29520205,0.1617632,-0.04480197,-0.13131732,0.13435861,-0.35664764,-0.51805395,-0.24583021,-0.27682084,826.4103,806.6667,801.02563,807.8755,847.3626,-0.26885986328125,-0.04193115234375,0.9781494140625,2.385101318359375,0.179443359375,-1.07666015625,1,1.0,1.0,1.0,1.0,50.00
2022-11-23 20:27:05.955,0.56202435,-0.079248965,-0.20168765,0.628908,0.911553,0.13945374,0.23175396,1.0118893,0.019001022,0.103014655,0.1703506,0.29520205,0.1617632,-0.04480197,-0.13131732,0.13435861,-0.35664764,-0.51805395,-0.24583021,-0.27682084,794.9817,802.6374,801.8315,788.93774,779.2674,-0.26885986328125,-0.04193115234375,0.9781494140625,2.385101318359375,0.179443359375,-1.07666015625,1,1.0,1.0,1.0,1.0,50.00
2022-11-23 20:27:06.006,0.56202435,-0.079248965,-0.20168765,0.628908,0.911553,0.13945374,0.23175396,1.0118893,0.019001022,0.103014655,0.1703506,0.29520205,0.1617632,-0.04480197,-0.13131732,0.13435861,-0.35664764,-0.51805395,-0.24583021,-0.27682084,783.69965,800.2198,806.26373,788.5348,631.39197,-0.2669677734375,-0.04534912109375,0.97393798828125,2.91595458984375,-0.859832763671875,-1.203765869140625,1,1.0,1.0,1.0,1.0,50.00
2022-11-23 20:27:06.006,0.56202435,-0.079248965,-0.20168765,0.628908,0.911553,0.13945374,0.23175396,1.0118893,0.019001022,0.103014655,0.1703506,0.29520205,0.1617632,-0.04480197,-0.13131732,0.13435861,-0.35664764,-0.51805395,-0.24583021,-0.27682084,811.50183,803.0403,806.26373,813.1135,696.6667,-0.2669677734375,-0.04534912109375,0.97393798828125,2.91595458984375,-0.859832763671875,-1.203765869140625,1,1.0,1.0,1.0,1.0,50.00
2022-11-23 20:27:06.007,0.56202435,-0.079248965,-0.20168765,0.628908,0.911553,0.13945374,0.23175396,1.0118893,0.019001022,0.103014655,0.1703506,0.29520205,0.1617632,-0.04480197,-0.13131732,0.13435861,-0.35664764,-0.51805395,-0.24583021,-0.27682084,833.663,808.2784,803.0403,822.381,853.00366,-0.2669677734375,-0.04534912109375,0.97393798828125,2.91595458984375,-0.859832763671875,-1.203765869140625,1,1.0,1.0,1.0,1.0,50.00
2022-11-23 20:27:06.008,0.56202435,-0.079248965,-0.20168765,0.628908,0.911553,0.13945374,0.23175396,1.0118893,0.019001022,0.103014655,0.1703506,0.29520205,0.1617632,-0.04480197,-0.13131732,0.13435861,-0.35664764,-0.51805395,-0.24583021,-0.27682084,811.9048,810.293,799.011,801.8315,787.326,-0.2669677734375,-0.04534912109375,0.97393798828125,2.91595458984375,-0.859832763671875,-1.203765869140625,1,1.0,1.0,1.0,1.0,50.00
2022-11-23 20:27:06.009,0.56202435,-0.079248965,-0.20168765,0.628908,0.911553,0.13945374,0.23175396,1.0118893,0.019001022,0.103014655,0.1703506,0.29520205,0.1617632,-0.04480197,-0.13131732,0.13435861,-0.35664764,-0.51805395,-0.24583021,-0.27682084,782.0879,804.2491,796.5934,785.31134,647.1062,-0.2669677734375,-0.04534912109375,0.97393798828125,2.91595458984375,-0.859832763671875,-1.203765869140625,1,1.0,1.0,1.0,1.0,50.00
2022-11-23 20:27:06.009,0.4946054,-0.13158025,-0.21413487,0.57981277,0.7662116,-0.011816811,0.1260452,0.89116,0.009969301,0.102404416,0.16094936,0.20174654,0.15630463,-0.043165475,-0.14417937,0.13567509,-0.35786083,-0.52674335,-0.24099658,-0.28661516,790.54944,799.81683,796.5934,796.99634,695.05493,-0.2669677734375,-0.04534912109375,0.97393798828125,2.91595458984375,-0.859832763671875,-1.203765869140625,1,1.0,1.0,1.0,1.0,50.00
2022-11-23 20:27:06.012,0.4946054,-0.13158025,-0.21413487,0.57981277,0.7662116,-0.011816811,0.1260452,0.89116,0.009969301,0.102404416,0.16094936,0.20174654,0.15630463,-0.043165475,-0.14417937,0.13567509,-0.35786083,-0.52674335,-0.24099658,-0.28661516,815.9341,798.20514,796.99634,817.5458,925.9341,-0.2669677734375,-0.04534912109375,0.97393798828125,2.91595458984375,-0.859832763671875,-1.203765869140625,1,1.0,1.0,1.0,1.0,50.00
2022-11-23 20:27:06.012,0.4946054,-0.13158025,-0.21413487,0.57981277,0.7662116,-0.011816811,0.1260452,0.89116,0.009969301,0.102404416,0.16094936,0.20174654,0.15630463,-0.043165475,-0.14417937,0.13567509,-0.35786083,-0.52674335,-0.24099658,-0.28661516,802.23444,797.8022,795.38464,805.05493,971.06226,-0.2669677734375,-0.04534912109375,0.97393798828125,2.91595458984375,-0.859832763671875,-1.203765869140625,1,1.0,1.0,1.0,1.0,50.00
2022-11-23 20:27:06.012,0.4946054,-0.13158025,-0.21413487,0.57981277,0.7662116,-0.011816811,0.1260452,0.89116,0.009969301,0.102404416,0.16094936,0.20174654,0.15630463,-0.043165475,-0.14417937,0.13567509,-0.35786083,-0.52674335,-0.24099658,-0.28661516,770.0,797.8022,794.9817,779.2674,661.2088,-0.2669677734375,-0.04534912109375,0.97393798828125,2.91595458984375,-0.859832763671875,-1.203765869140625,1,1.0,1.0,1.0,1.0,50.00
2022-11-23 20:27:06.013,0.4946054,-0.13158025,-0.21413487,0.57981277,0.7662116,-0.011816811,0.1260452,0.89116,0.009969301,0.102404416,0.16094936,0.20174654,0.15630463,-0.043165475,-0.14417937,0.13567509,-0.35786083,-0.52674335,-0.24099658,-0.28661516,784.5055,800.6227,795.78754,791.75824,618.9011,-0.2669677734375,-0.04534912109375,0.97393798828125,2.91595458984375,-0.859832763671875,-1.203765869140625,1,1.0,1.0,1.0,1.0,50.00
2022-11-23 20:27:06.013,0.4946054,-0.13158025,-0.21413487,0.57981277,0.7662116,-0.011816811,0.1260452,0.89116,0.009969301,0.102404416,0.16094936,0.20174654,0.15630463,-0.043165475,-0.14417937,0.13567509,-0.35786083,-0.52674335,-0.24099658,-0.28661516,810.293,800.2198,792.1612,814.7253,813.91943,-0.2669677734375,-0.04534912109375,0.97393798828125,2.91595458984375,-0.859832763671875,-1.203765869140625,1,1.0,1.0,1.0,1.0,50.00
2022-11-23 20:27:06.013,0.4946054,-0.13158025,-0.21413487,0.57981277,0.7662116,-0.011816811,0.1260452,0.89116,0.009969301,0.102404416,0.16094936,0.20174654,0.15630463,-0.043165475,-0.14417937,0.13567509,-0.35786083,-0.52674335,-0.24099658,-0.28661516,805.4579,799.011,792.1612,808.2784,927.5458,-0.2669677734375,-0.04534912109375,0.97393798828125,2.91595458984375,-0.859832763671875,-1.203765869140625,1,1.0,1.0,1.0,1.0,50.00
2022-11-23 20:27:06.060,0.4946054,-0.13158025,-0.21413487,0.57981277,0.7662116,-0.011816811,0.1260452,0.89116,0.009969301,0.102404416,0.16094936,0.20174654,0.15630463,-0.043165475,-0.14417937,0.13567509,-0.35786083,-0.52674335,-0.24099658,-0.28661516,777.25275,800.6227,795.78754,782.0879,801.8315,-0.27099609375,-0.0408935546875,0.9718017578125,4.62066650390625,-1.03179931640625,-1.143951416015625,1,1.0,1.0,1.0,1.0,50.00
2022-11-23 20:27:06.060,0.4946054,-0.13158025,-0.21413487,0.57981277,0.7662116,-0.011816811,0.1260452,0.89116,0.009969301,0.102404416,0.16094936,0.20174654,0.15630463,-0.043165475,-0.14417937,0.13567509,-0.35786083,-0.52674335,-0.24099658,-0.28661516,772.4176,796.99634,792.1612,776.04395,665.64105,-0.27099609375,-0.0408935546875,0.9718017578125,4.62066650390625,-1.03179931640625,-1.143951416015625,1,1.0,1.0,1.0,1.0,50.00
2022-11-23 20:27:06.061,0.4946054,-0.13158025,-0.21413487,0.57981277,0.7662116,-0.011816811,0.1260452,0.89116,0.009969301,0.102404416,0.16094936,0.20174654,0.15630463,-0.043165475,-0.14417937,0.13567509,-0.35786083,-0.52674335,-0.24099658,-0.28661516,811.9048,794.9817,796.1905,807.0696,878.3883,-0.27099609375,-0.0408935546875,0.9718017578125,4.62066650390625,-1.03179931640625,-1.143951416015625,1,1.0,1.0,1.0,1.0,50.00
2022-11-23 20:27:06.061,0.4946054,-0.13158025,-0.21413487,0.57981277,0.7662116,-0.011816811,0.1260452,0.89116,0.009969301,0.102404416,0.16094936,0.20174654,0.15630463,-0.043165475,-0.14417937,0.13567509,-0.35786083,-0.52674335,-0.24099658,-0.28661516,827.619,799.011,803.44324,821.5751,931.1722,-0.27099609375,-0.0408935546875,0.9718017578125,4.62066650390625,-1.03179931640625,-1.143951416015625,1,1.0,1.0,1.0,1.0,50.00
2022-11-23 20:27:06.061,0.4946054,-0.13158025,-0.21413487,0.57981277,0.7662116,-0.011816811,0.1260452,0.89116,0.009969301,0.102404416,0.16094936,0.20174654,0.15630463,-0.043165475,-0.14417937,0.13567509,-0.35786083,-0.52674335,-0.24099658,-0.28661516,797.3993,809.0842,801.02563,795.78754,707.1429,-0.27099609375,-0.0408935546875,0.9718017578125,4.62066650390625,-1.03179931640625,-1.143951416015625,1,1.0,1.0,1.0,1.0,50.00
2022-11-23 20:27:06.061,0.4946054,-0.13158025,-0.21413487,0.57981277,0.7662116,-0.011816811,0.1260452,0.89116,0.009969301,0.102404416,0.16094936,0.20174654,0.15630463,-0.043165475,-0.14417937,0.13567509,-0.35786083,-0.52674335,-0.24099658,-0.28661516,780.4762,811.50183,797.8022,782.49084,665.2381,-0.27099609375,-0.0408935546875,0.9718017578125,4.62066650390625,-1.03179931640625,-1.143951416015625,1,1.0,1.0,1.0,1.0,50.00
2022-11-23 20:27:06.062,0.4946054,-0.13158025,-0.21413487,0.57981277,0.7662116,-0.011816811,0.1260452,0.89116,0.009969301,0.102404416,0.16094936,0.20174654,0.15630463,-0.043165475,-0.14417937,0.13567509,-0.35786083,-0.52674335,-0.24099658,-0.28661516,810.293,809.4872,800.2198,814.3223,1000.4762,-0.27099609375,-0.0408935546875,0.9718017578125,4.62066650390625,-1.03179931640625,-1.143951416015625,1,1.0,1.0,1.0,1.0,50.00
2022-11-23 20:27:06.062,0.4946054,-0.13158025,-0.21413487,0.57981277,0.7662116,-0.011816811,0.1260452,0.89116,0.009969301,0.102404416,0.16094936,0.20174654,0.15630463,-0.043165475,-0.14417937,0.13567509,-0.35786083,-0.52674335,-0.24099658,-0.28661516,834.4689,813.5165,805.05493,831.6484,1009.7436,-0.27099609375,-0.0408935546875,0.9718017578125,4.62066650390625,-1.03179931640625,-1.143951416015625,1,1.0,1.0,1.0,1.0,50.00
2022-11-23 20:27:06.062,0.4946054,-0.13158025,-0.21413487,0.57981277,0.7662116,-0.011816811,0.1260452,0.89116,0.009969301,0.102404416,0.16094936,0.20174654,0.15630463,-0.043165475,-0.14417937,0.13567509,-0.35786083,-0.52674335,-0.24099658,-0.28661516,809.89014,813.91943,801.02563,810.293,701.0989,-0.27099609375,-0.0408935546875,0.9718017578125,4.62066650390625,-1.03179931640625,-1.143951416015625,1,1.0,1.0,1.0,1.0,50.00
2022-11-23 20:27:06.063,0.4946054,-0.13158025,-0.21413487,0.57981277,0.7662116,-0.011816811,0.1260452,0.89116,0.009969301,0.102404416,0.16094936,0.20174654,0.15630463,-0.043165475,-0.14417937,0.13567509,-0.35786083,-0.52674335,-0.24099658,-0.28661516,783.69965,812.71063,801.8315,790.54944,532.674,-0.27099609375,-0.0408935546875,0.9718017578125,4.62066650390625,-1.03179931640625,-1.143951416015625,1,1.0,1.0,1.0,1.0,50.00
2022-11-23 20:27:06.063,0.4946054,-0.13158025,-0.21413487,0.57981277,0.7662116,-0.011816811,0.1260452,0.89116,0.009969301,0.102404416,0.16094936,0.20174654,0.15630463,-0.043165475,-0.14417937,0.13567509,-0.35786083,-0.52674335,-0.24099658,-0.28661516,801.8315,809.89014,803.0403,806.6667,633.00366,-0.27099609375,-0.0408935546875,0.9718017578125,4.62066650390625,-1.03179931640625,-1.143951416015625,1,1.0,1.0,1.0,1.0,50.00
2022-11-23 20:27:06.063,0.4946054,-0.13158025,-0.21413487,0.57981277,0.7662116,-0.011816811,0.1260452,0.89116,0.009969301,0.102404416,0.16094936,0.20174654,0.15630463,-0.043165475,-0.14417937,0.13567509,-0.35786083,-0.52674335,-0.24099658,-0.28661516,840.9158,809.4872,802.6374,835.2747,871.9414,-0.27099609375,-0.0408935546875,0.9718017578125,4.62066650390625,-1.03179931640625,-1.143951416015625,1,1.0,1.0,1.0,1.0,50.00
2022-11-23 20:27:06.085,0.4946054,-0.13158025,-0.21413487,0.57981277,0.7662116,-0.011816811,0.1260452,0.89116,0.009969301,0.102404416,0.16094936,0.20174654,0.15630463,-0.043165475,-0.14417937,0.13567509,-0.35786083,-0.52674335,-0.24099658,-0.28661516,828.4249,810.696,807.47253,824.7985,863.47986,-0.27099609375,-0.0408935546875,0.9718017578125,4.62066650390625,-1.03179931640625,-1.143951416015625,1,1.0,1.0,1.0,1.0,50.00
2022-11-23 20:27:06.085,0.4946054,-0.13158025,-0.21413487,0.57981277,0.7662116,-0.011816811,0.1260452,0.89116,0.009969301,0.102404416,0.16094936,0.20174654,0.15630463,-0.043165475,-0.14417937,0.13567509,-0.35786083,-0.52674335,-0.24099658,-0.28661516,784.90845,811.9048,812.3077,801.4286,660.0,-0.27099609375,-0.0408935546875,0.9718017578125,4.62066650390625,-1.03179931640625,-1.143951416015625,1,1.0,1.0,1.0,1.0,50.00
2022-11-23 20:27:06.085,0.4946054,-0.13158025,-0.21413487,0.57981277,0.7662116,-0.011816811,0.1260452,0.89116,0.009969301,0.102404416,0.16094936,0.20174654,0.15630463,-0.043165475,-0.14417937,0.13567509,-0.35786083,-0.52674335,-0.24099658,-0.28661516,791.75824,809.89014,812.71063,804.65204,669.2674,-0.27099609375,-0.0408935546875,0.9718017578125,4.62066650390625,-1.03179931640625,-1.143951416015625,1,1.0,1.0,1.0,1.0,50.00
2022-11-23 20:27:06.086,0.4946054,-0.13158025,-0.21413487,0.57981277,0.7662116,-0.011816811,0.1260452,0.89116,0.009969301,0.102404416,0.16094936,0.20174654,0.15630463,-0.043165475,-0.14417937,0.13567509,-0.35786083,-0.52674335,-0.24099658,-0.28661516,832.8571,807.47253,813.5165,820.3663,864.2857,-0.27099609375,-0.0408935546875,0.9718017578125,4.62066650390625,-1.03179931640625,-1.143951416015625,1,1.0,1.0,1.0,1.0,50.00
2022-11-23 20:27:06.086,0.4946054,-0.13158025,-0.21413487,0.57981277,0.7662116,-0.011816811,0.1260452,0.89116,0.009969301,0.102404416,0.16094936,0.20174654,0.15630463,-0.043165475,-0.14417937,0.13567509,-0.35786083,-0.52674335,-0.24099658,-0.28661516,839.707,809.89014,813.91943,820.3663,844.1392,-0.27099609375,-0.0408935546875,0.9718017578125,4.62066650390625,-1.03179931640625,-1.143951416015625,1,1.0,1.0,1.0,1.0,50.00
2022-11-23 20:27:06.086,0.4946054,-0.13158025,-0.21413487,0.57981277,0.7662116,-0.011816811,0.1260452,0.89116,0.009969301,0.102404416,0.16094936,0.20174654,0.15630463,-0.043165475,-0.14417937,0.13567509,-0.35786083,-0.52674335,-0.24099658,-0.28661516,803.0403,811.50183,813.91943,799.81683,837.6923,-0.27099609375,-0.0408935546875,0.9718017578125,4.62066650390625,-1.03179931640625,-1.143951416015625,1,1.0,1.0,1.0,1.0,50.00
2022-11-23 20:27:06.086,0.4946054,-0.13158025,-0.21413487,0.57981277,0.7662116,-0.011816811,0.1260452,0.89116,0.009969301,0.102404416,0.16094936,0.20174654,0.15630463,-0.043165475,-0.14417937,0.13567509,-0.35786083,-0.52674335,-0.24099658,-0.28661516,792.1612,810.293,818.3516,803.8461,1069.7803,-0.27099609375,-0.0408935546875,0.9718017578125,4.62066650390625,-1.03179931640625,-1.143951416015625,1,1.0,1.0,1.0,1.0,50.00
2022-11-23 20:27:06.087,0.46575734,-0.1498364,-0.19693406,0.54669696,0.60066533,-0.11655185,0.04469153,0.74945796,-0.0013494373,0.10583459,0.14851265,0.093780585,0.14829671,-0.038895216,-0.15375575,0.13414489,-0.34785834,-0.5239267,-0.24941857,-0.28724456,834.4689,811.50183,817.1429,833.663,962.6007,-0.27099609375,-0.0408935546875,0.9718017578125,4.62066650390625,-1.03179931640625,-1.143951416015625,1,1.0,1.0,1.0,1.0,50.00
2022-11-23 20:27:06.088,0.46575734,-0.1498364,-0.19693406,0.54669696,0.60066533,-0.11655185,0.04469153,0.74945796,-0.0013494373,0.10583459,0.14851265,0.093780585,0.14829671,-0.038895216,-0.15375575,0.13414489,-0.34785834,-0.5239267,-0.24941857,-0.28724456,846.9597,809.4872,813.5165,837.6923,855.42126,-0.27099609375,-0.0408935546875,0.9718017578125,4.62066650390625,-1.03179931640625,-1.143951416015625,1,1.0,1.0,1.0,1.0,50.00
2022-11-23 20:27:06.088,0.46575734,-0.1498364,-0.19693406,0.54669696,0.60066533,-0.11655185,0.04469153,0.74945796,-0.0013494373,0.10583459,0.14851265,0.093780585,0.14829671,-0.038895216,-0.15375575,0.13414489,-0.34785834,-0.5239267,-0.24941857,-0.28724456,807.8755,808.68134,815.12823,809.4872,859.45056,-0.27099609375,-0.0408935546875,0.9718017578125,4.62066650390625,-1.03179931640625,-1.143951416015625,1,1.0,1.0,1.0,1.0,50.00
2022-11-23 20:27:06.088,0.46575734,-0.1498364,-0.19693406,0.54669696,0.60066533,-0.11655185,0.04469153,0.74945796,-0.0013494373,0.10583459,0.14851265,0.093780585,0.14829671,-0.038895216,-0.15375575,0.13414489,-0.34785834,-0.5239267,-0.24941857,-0.28724456,788.5348,807.8755,821.1722,804.2491,722.8571,-0.27099609375,-0.0408935546875,0.9718017578125,4.62066650390625,-1.03179931640625,-1.143951416015625,1,1.0,1.0,1.0,1.0,50.00
2022-11-23 20:27:06.088,0.46575734,-0.1498364,-0.19693406,0.54669696,0.60066533,-0.11655185,0.04469153,0.74945796,-0.0013494373,0.10583459,0.14851265,0.093780585,0.14829671,-0.038895216,-0.15375575,0.13414489,-0.34785834,-0.5239267,-0.24941857,-0.28724456,819.9634,806.6667,821.978,830.4396,693.44324,-0.27099609375,-0.0408935546875,0.9718017578125,4.62066650390625,-1.03179931640625,-1.143951416015625,1,1.0,1.0,1.0,1.0,50.00
2022-11-23 20:27:06.135,0.46575734,-0.1498364,-0.19693406,0.54669696,0.60066533,-0.11655185,0.04469153,0.74945796,-0.0013494373,0.10583459,0.14851265,0.093780585,0.14829671,-0.038895216,-0.15375575,0.13414489,-0.34785834,-0.5239267,-0.24941857,-0.28724456,842.9304,806.26373,818.3516,839.304,797.3993,-0.25299072265625,-0.02838134765625,0.98358154296875,6.4898681640625,-2.459869384765625,-1.45050048828125,1,1.0,1.0,1.0,1.0,50.00
2022-11-23 20:27:06.135,0.46575734,-0.1498364,-0.19693406,0.54669696,0.60066533,-0.11655185,0.04469153,0.74945796,-0.0013494373,0.10583459,0.14851265,0.093780585,0.14829671,-0.038895216,-0.15375575,0.13414489,-0.34785834,-0.5239267,-0.24941857,-0.28724456,813.91943,807.8755,816.337,819.15753,802.23444,-0.25299072265625,-0.02838134765625,0.98358154296875,6.4898681640625,-2.459869384765625,-1.45050048828125,1,1.0,1.0,1.0,1.0,50.00
2022-11-23 20:27:06.135,0.46575734,-0.1498364,-0.19693406,0.54669696,0.60066533,-0.11655185,0.04469153,0.74945796,-0.0013494373,0.10583459,0.14851265,0.093780585,0.14829671,-0.038895216,-0.15375575,0.13414489,-0.34785834,-0.5239267,-0.24941857,-0.28724456,782.49084,809.0842,818.3516,797.8022,697.47253,-0.25299072265625,-0.02838134765625,0.98358154296875,6.4898681640625,-2.459869384765625,-1.45050048828125,1,1.0,1.0,1.0,1.0,50.00
2022-11-23 20:27:06.136,0.46575734,-0.1498364,-0.19693406,0.54669696,0.60066533,-0.11655185,0.04469153,0.74945796,-0.0013494373,0.10583459,0.14851265,0.093780585,0.14829671,-0.038895216,-0.15375575,0.13414489,-0.34785834,-0.5239267,-0.24941857,-0.28724456,796.1905,808.68134,818.3516,811.0989,702.71063,-0.25299072265625,-0.02838134765625,0.98358154296875,6.4898681640625,-2.459869384765625,-1.45050048828125,1,1.0,1.0,1.0,1.0,50.00
2022-11-23 20:27:06.136,0.46575734,-0.1498364,-0.19693406,0.54669696,0.60066533,-0.11655185,0.04469153,0.74945796,-0.0013494373,0.10583459,0.14851265,0.093780585,0.14829671,-0.038895216,-0.15375575,0.13414489,-0.34785834,-0.5239267,-0.24941857,-0.28724456,823.5897,808.2784,813.1135,836.08057,892.0879,-0.25299072265625,-0.02838134765625,0.98358154296875,6.4898681640625,-2.459869384765625,-1.45050048828125,1,1.0,1.0,1.0,1.0,50.00
2022-11-23 20:27:06.136,0.46575734,-0.1498364,-0.19693406,0.54669696,0.60066533,-0.11655185,0.04469153,0.74945796,-0.0013494373,0.10583459,0.14851265,0.093780585,0.14829671,-0.038895216,-0.15375575,0.13414489,-0.34785834,-0.5239267,-0.24941857,-0.28724456,816.337,808.68134,805.4579,820.7692,934.7985,-0.25299072265625,-0.02838134765625,0.98358154296875,6.4898681640625,-2.459869384765625,-1.45050048828125,1,1.0,1.0,1.0,1.0,50.00
2022-11-23 20:27:06.136,0.46575734,-0.1498364,-0.19693406,0.54669696,0.60066533,-0.11655185,0.04469153,0.74945796,-0.0013494373,0.10583459,0.14851265,0.093780585,0.14829671,-0.038895216,-0.15375575,0.13414489,-0.34785834,-0.5239267,-0.24941857,-0.28724456,779.67035,807.0696,807.47253,796.5934,705.12823,-0.25299072265625,-0.02838134765625,0.98358154296875,6.4898681640625,-2.459869384765625,-1.45050048828125,1,1.0,1.0,1.0,1.0,50.00
2022-11-23 20:27:06.137,0.46575734,-0.1498364,-0.19693406,0.54669696,0.60066533,-0.11655185,0.04469153,0.74945796,-0.0013494373,0.10583459,0.14851265,0.093780585,0.14829671,-0.038895216,-0.15375575,0.13414489,-0.34785834,-0.5239267,-0.24941857,-0.28724456,779.2674,802.23444,805.8608,799.81683,636.2271,-0.25299072265625,-0.02838134765625,0.98358154296875,6.4898681640625,-2.459869384765625,-1.45050048828125,1,1.0,1.0,1.0,1.0,50.00
2022-11-23 20:27:06.137,0.46575734,-0.1498364,-0.19693406,0.54669696,0.60066533,-0.11655185,0.04469153,0.74945796,-0.0013494373,0.10583459,0.14851265,0.093780585,0.14829671,-0.038895216,-0.15375575,0.13414489,-0.34785834,-0.5239267,-0.24941857,-0.28724456,817.9487,803.0403,803.0403,823.9927,815.12823,-0.25299072265625,-0.02838134765625,0.98358154296875,6.4898681640625,-2.459869384765625,-1.45050048828125,1,1.0,1.0,1.0,1.0,50.00
2022-11-23 20:27:06.137,0.46575734,-0.1498364,-0.19693406,0.54669696,0.60066533,-0.11655185,0.04469153,0.74945796,-0.0013494373,0.10583459,0.14851265,0.093780585,0.14829671,-0.038895216,-0.15375575,0.13414489,-0.34785834,-0.5239267,-0.24941857,-0.28724456,813.91943,799.81683,801.02563,823.5897,1080.2565,-0.25299072265625,-0.02838134765625,0.98358154296875,6.4898681640625,-2.459869384765625,-1.45050048828125,1,1.0,1.0,1.0,1.0,50.00
2022-11-23 20:27:06.137,0.46575734,-0.1498364,-0.19693406,0.54669696,0.60066533,-0.11655185,0.04469153,0.74945796,-0.0013494373,0.10583459,0.14851265,0.093780585,0.14829671,-0.038895216,-0.15375575,0.13414489,-0.34785834,-0.5239267,-0.24941857,-0.28724456,776.4469,797.3993,799.81683,790.54944,865.89746,-0.25299072265625,-0.02838134765625,0.98358154296875,6.4898681640625,-2.459869384765625,-1.45050048828125,1,1.0,1.0,1.0,1.0,50.00
2022-11-23 20:27:06.138,0.46575734,-0.1498364,-0.19693406,0.54669696,0.60066533,-0.11655185,0.04469153,0.74945796,-0.0013494373,0.10583459,0.14851265,0.093780585,0.14829671,-0.038895216,-0.15375575,0.13414489,-0.34785834,-0.5239267,-0.24941857,-0.28724456,773.22345,799.81683,801.4286,783.69965,578.60803,-0.25299072265625,-0.02838134765625,0.98358154296875,6.4898681640625,-2.459869384765625,-1.45050048828125,1,1.0,1.0,1.0,1.0,50.00
2022-11-23 20:27:06.185,0.46575734,-0.1498364,-0.19693406,0.54669696,0.60066533,-0.11655185,0.04469153,0.74945796,-0.0013494373,0.10583459,0.14851265,0.093780585,0.14829671,-0.038895216,-0.15375575,0.13414489,-0.34785834,-0.5239267,-0.24941857,-0.28724456,796.1905,796.5934,801.4286,801.8315,738.5714,-0.26446533203125,-0.01116943359375,0.9818115234375,7.185211181640625,-1.188812255859375,1.1663818359375,1,1.0,1.0,1.0,1.0,50.00
2022-11-23 20:27:06.185,0.46575734,-0.1498364,-0.19693406,0.54669696,0.60066533,-0.11655185,0.04469153,0.74945796,-0.0013494373,0.10583459,0.14851265,0.093780585,0.14829671,-0.038895216,-0.15375575,0.13414489,-0.34785834,-0.5239267,-0.24941857,-0.28724456,811.0989,795.78754,804.65204,807.8755,892.49084,-0.26446533203125,-0.01116943359375,0.9818115234375,7.185211181640625,-1.188812255859375,1.1663818359375,1,1.0,1.0,1.0,1.0,50.00
2022-11-23 20:27:06.185,0.46575734,-0.1498364,-0.19693406,0.54669696,0.60066533,-0.11655185,0.04469153,0.74945796,-0.0013494373,0.10583459,0.14851265,0.093780585,0.14829671,-0.038895216,-0.15375575,0.13414489,-0.34785834,-0.5239267,-0.24941857,-0.28724456,788.1319,795.78754,799.81683,785.7143,759.5238,-0.26446533203125,-0.01116943359375,0.9818115234375,7.185211181640625,-1.188812255859375,1.1663818359375,1,1.0,1.0,1.0,1.0,50.00
2022-11-23 20:27:06.186,0.46575734,-0.1498364,-0.19693406,0.54669696,0.60066533,-0.11655185,0.04469153,0.74945796,-0.0013494373,0.10583459,0.14851265,0.093780585,0.14829671,-0.038895216,-0.15375575,0.13414489,-0.34785834,-0.5239267,-0.24941857,-0.28724456,762.3443,794.17584,796.1905,770.0,572.5641,-0.26446533203125,-0.01116943359375,0.9818115234375,7.185211181640625,-1.188812255859375,1.1663818359375,1,1.0,1.0,1.0,1.0,50.00
2022-11-23 20:27:06.186,0.46575734,-0.1498364,-0.19693406,0.54669696,0.60066533,-0.11655185,0.04469153,0.74945796,-0.0013494373,0.10583459,0.14851265,0.093780585,0.14829671,-0.038895216,-0.15375575,0.13414489,-0.34785834,-0.5239267,-0.24941857,-0.28724456,775.64105,792.96704,797.8022,786.52014,679.34064,-0.26446533203125,-0.01116943359375,0.9818115234375,7.185211181640625,-1.188812255859375,1.1663818359375,1,1.0,1.0,1.0,1.0,50.00
2022-11-23 20:27:06.186,0.46575734,-0.1498364,-0.19693406,0.54669696,0.60066533,-0.11655185,0.04469153,0.74945796,-0.0013494373,0.10583459,0.14851265,0.093780585,0.14829671,-0.038895216,-0.15375575,0.13414489,-0.34785834,-0.5239267,-0.24941857,-0.28724456,804.65204,792.1612,793.7729,798.60803,948.0952,-0.26446533203125,-0.01116943359375,0.9818115234375,7.185211181640625,-1.188812255859375,1.1663818359375,1,1.0,1.0,1.0,1.0,50.00
2022-11-23 20:27:06.186,0.46575734,-0.1498364,-0.19693406,0.54669696,0.60066533,-0.11655185,0.04469153,0.74945796,-0.0013494373,0.10583459,0.14851265,0.093780585,0.14829671,-0.038895216,-0.15375575,0.13414489,-0.34785834,-0.5239267,-0.24941857,-0.28724456,793.7729,794.9817,795.38464,791.3553,900.54944,-0.26446533203125,-0.01116943359375,0.9818115234375,7.185211181640625,-1.188812255859375,1.1663818359375,1,1.0,1.0,1.0,1.0,50.00
2022-11-23 20:27:06.186,0.46575734,-0.1498364,-0.19693406,0.54669696,0.60066533,-0.11655185,0.04469153,0.74945796,-0.0013494373,0.10583459,0.14851265,0.093780585,0.14829671,-0.038895216,-0.15375575,0.13414489,-0.34785834,-0.5239267,-0.24941857,-0.28724456,765.16486,800.6227,798.60803,779.2674,618.0952,-0.26446533203125,-0.01116943359375,0.9818115234375,7.185211181640625,-1.188812255859375,1.1663818359375,1,1.0,1.0,1.0,1.0,50.00
2022-11-23 20:27:06.187,0.46575734,-0.1498364,-0.19693406,0.54669696,0.60066533,-0.11655185,0.04469153,0.74945796,-0.0013494373,0.10583459,0.14851265,0.093780585,0.14829671,-0.038895216,-0.15375575,0.13414489,-0.34785834,-0.5239267,-0.24941857,-0.28724456,778.0586,801.4286,802.6374,790.9524,749.0476,-0.26446533203125,-0.01116943359375,0.9818115234375,7.185211181640625,-1.188812255859375,1.1663818359375,1,1.0,1.0,1.0,1.0,50.00
2022-11-23 20:27:06.187,0.47126678,-0.1549295,-0.15551263,0.5383993,0.44154897,-0.13992119,0.028878564,0.60657,-0.024257116,0.10137608,0.13640171,0.0013271354,0.142177,-0.036313105,-0.1665183,0.13348563,-0.33370596,-0.5051481,-0.27332118,-0.28233412,816.337,800.6227,801.02563,815.9341,1172.9304,-0.26446533203125,-0.01116943359375,0.9818115234375,7.185211181640625,-1.188812255859375,1.1663818359375,1,1.0,1.0,1.0,1.0,50.00
2022-11-23 20:27:06.188,0.47126678,-0.1549295,-0.15551263,0.5383993,0.44154897,-0.13992119,0.028878564,0.60657,-0.024257116,0.10137608,0.13640171,0.0013271354,0.142177,-0.036313105,-0.1665183,0.13348563,-0.33370596,-0.5051481,-0.27332118,-0.28233412,813.91943,800.2198,799.41394,805.05493,953.73627,-0.26446533203125,-0.01116943359375,0.9818115234375,7.185211181640625,-1.188812255859375,1.1663818359375,1,1.0,1.0,1.0,1.0,50.00
2022-11-23 20:27:06.188,0.47126678,-0.1549295,-0.15551263,0.5383993,0.44154897,-0.13992119,0.028878564,0.60657,-0.024257116,0.10137608,0.13640171,0.0013271354,0.142177,-0.036313105,-0.1665183,0.13348563,-0.33370596,-0.5051481,-0.27332118,-0.28233412,773.22345,801.8315,801.8315,774.0293,636.2271,-0.26446533203125,-0.01116943359375,0.9818115234375,7.185211181640625,-1.188812255859375,1.1663818359375,1,1.0,1.0,1.0,1.0,50.00
2022-11-23 20:27:06.235,0.47126678,-0.1549295,-0.15551263,0.5383993,0.44154897,-0.13992119,0.028878564,0.60657,-0.024257116,0.10137608,0.13640171,0.0013271354,0.142177,-0.036313105,-0.1665183,0.13348563,-0.33370596,-0.5051481,-0.27332118,-0.28233412,773.6264,801.4286,799.011,780.4762,671.28204,-0.275390625,-0.00482177734375,0.98846435546875,5.62255859375,0.919647216796875,0.94207763671875,1,1.0,1.0,1.0,1.0,50.00
2022-11-23 20:27:06.235,0.47126678,-0.1549295,-0.15551263,0.5383993,0.44154897,-0.13992119,0.028878564,0.60657,-0.024257116,0.10137608,0.13640171,0.0013271354,0.142177,-0.036313105,-0.1665183,0.13348563,-0.33370596,-0.5051481,-0.27332118,-0.28233412,814.7253,797.3993,801.02563,808.68134,797.3993,-0.275390625,-0.00482177734375,0.98846435546875,5.62255859375,0.919647216796875,0.94207763671875,1,1.0,1.0,1.0,1.0,50.00
2022-11-23 20:27:06.235,0.47126678,-0.1549295,-0.15551263,0.5383993,0.44154897,-0.13992119,0.028878564,0.60657,-0.024257116,0.10137608,0.13640171,0.0013271354,0.142177,-0.036313105,-0.1665183,0.13348563,-0.33370596,-0.5051481,-0.27332118,-0.28233412,819.5604,799.81683,800.6227,805.4579,860.2564,-0.275390625,-0.00482177734375,0.98846435546875,5.62255859375,0.919647216796875,0.94207763671875,1,1.0,1.0,1.0,1.0,50.00
2022-11-23 20:27:06.236,0.47126678,-0.1549295,-0.15551263,0.5383993,0.44154897,-0.13992119,0.028878564,0.60657,-0.024257116,0.10137608,0.13640171,0.0013271354,0.142177,-0.036313105,-0.1665183,0.13348563,-0.33370596,-0.5051481,-0.27332118,-0.28233412,783.69965,801.8315,796.1905,780.07324,736.9597,-0.275390625,-0.00482177734375,0.98846435546875,5.62255859375,0.919647216796875,0.94207763671875,1,1.0,1.0,1.0,1.0,50.00
2022-11-23 20:27:06.236,0.47126678,-0.1549295,-0.15551263,0.5383993,0.44154897,-0.13992119,0.028878564,0.60657,-0.024257116,0.10137608,0.13640171,0.0013271354,0.142177,-0.036313105,-0.1665183,0.13348563,-0.33370596,-0.5051481,-0.27332118,-0.28233412,776.04395,805.4579,799.81683,784.5055,701.9048,-0.275390625,-0.00482177734375,0.98846435546875,5.62255859375,0.919647216796875,0.94207763671875,1,1.0,1.0,1.0,1.0,50.00
2022-11-23 20:27:06.236,0.47126678,-0.1549295,-0.15551263,0.5383993,0.44154897,-0.13992119,0.028878564,0.60657,-0.024257116,0.10137608,0.13640171,0.0013271354,0.142177,-0.036313105,-0.1665183,0.13348563,-0.33370596,-0.5051481,-0.27332118,-0.28233412,810.696,805.05493,797.8022,807.8755,962.6007,-0.275390625,-0.00482177734375,0.98846435546875,5.62255859375,0.919647216796875,0.94207763671875,1,1.0,1.0,1.0,1.0,50.00
2022-11-23 20:27:06.236,0.47126678,-0.1549295,-0.15551263,0.5383993,0.44154897,-0.13992119,0.028878564,0.60657,-0.024257116,0.10137608,0.13640171,0.0013271354,0.142177,-0.036313105,-0.1665183,0.13348563,-0.33370596,-0.5051481,-0.27332118,-0.28233412,827.619,804.65204,793.7729,819.15753,1015.78754,-0.275390625,-0.00482177734375,0.98846435546875,5.62255859375,0.919647216796875,0.94207763671875,1,1.0,1.0,1.0,1.0,50.00
2022-11-23 20:27:06.237,0.47126678,-0.1549295,-0.15551263,0.5383993,0.44154897,-0.13992119,0.028878564,0.60657,-0.024257116,0.10137608,0.13640171,0.0013271354,0.142177,-0.036313105,-0.1665183,0.13348563,-0.33370596,-0.5051481,-0.27332118,-0.28233412,809.0842,807.47253,796.5934,800.2198,797.8022,-0.275390625,-0.00482177734375,0.98846435546875,5.62255859375,0.919647216796875,0.94207763671875,1,1.0,1.0,1.0,1.0,50.00
2022-11-23 20:27:06.237,0.47126678,-0.1549295,-0.15551263,0.5383993,0.44154897,-0.13992119,0.028878564,0.60657,-0.024257116,0.10137608,0.13640171,0.0013271354,0.142177,-0.036313105,-0.1665183,0.13348563,-0.33370596,-0.5051481,-0.27332118,-0.28233412,784.10254,805.8608,800.2198,786.52014,844.94507,-0.275390625,-0.00482177734375,0.98846435546875,5.62255859375,0.919647216796875,0.94207763671875,1,1.0,1.0,1.0,1.0,50.00
2022-11-23 20:27:06.237,0.47126678,-0.1549295,-0.15551263,0.5383993,0.44154897,-0.13992119,0.028878564,0.60657,-0.024257116,0.10137608,0.13640171,0.0013271354,0.142177,-0.036313105,-0.1665183,0.13348563,-0.33370596,-0.5051481,-0.27332118,-0.28233412,804.2491,808.2784,805.8608,801.8315,873.5531,-0.275390625,-0.00482177734375,0.98846435546875,5.62255859375,0.919647216796875,0.94207763671875,1,1.0,1.0,1.0,1.0,50.00
2022-11-23 20:27:06.237,0.47126678,-0.1549295,-0.15551263,0.5383993,0.44154897,-0.13992119,0.028878564,0.60657,-0.024257116,0.10137608,0.13640171,0.0013271354,0.142177,-0.036313105,-0.1665183,0.13348563,-0.33370596,-0.5051481,-0.27332118,-0.28233412,839.707,807.8755,807.0696,824.7985,829.2308,-0.275390625,-0.00482177734375,0.98846435546875,5.62255859375,0.919647216796875,0.94207763671875,1,1.0,1.0,1.0,1.0,50.00
2022-11-23 20:27:06.238,0.47126678,-0.1549295,-0.15551263,0.5383993,0.44154897,-0.13992119,0.028878564,0.60657,-0.024257116,0.10137608,0.13640171,0.0013271354,0.142177,-0.036313105,-0.1665183,0.13348563,-0.33370596,-0.5051481,-0.27332118,-0.28233412,824.3956,807.8755,801.4286,817.1429,786.52014,-0.275390625,-0.00482177734375,0.98846435546875,5.62255859375,0.919647216796875,0.94207763671875,1,1.0,1.0,1.0,1.0,50.00
2022-11-23 20:27:06.285,0.47126678,-0.1549295,-0.15551263,0.5383993,0.44154897,-0.13992119,0.028878564,0.60657,-0.024257116,0.10137608,0.13640171,0.0013271354,0.142177,-0.036313105,-0.1665183,0.13348563,-0.33370596,-0.5051481,-0.27332118,-0.28233412,784.5055,809.0842,798.60803,783.69965,715.6044,-0.28240966796875,-0.01025390625,0.98455810546875,4.08233642578125,0.829925537109375,-0.306549072265625,1,1.0,1.0,1.0,1.0,50.00
2022-11-23 20:27:06.286,0.47126678,-0.1549295,-0.15551263,0.5383993,0.44154897,-0.13992119,0.028878564,0.60657,-0.024257116,0.10137608,0.13640171,0.0013271354,0.142177,-0.036313105,-0.1665183,0.13348563,-0.33370596,-0.5051481,-0.27332118,-0.28233412,794.57874,805.8608,799.81683,790.14655,666.4469,-0.28240966796875,-0.01025390625,0.98455810546875,4.08233642578125,0.829925537109375,-0.306549072265625,1,1.0,1.0,1.0,1.0,50.00
2022-11-23 20:27:06.286,0.47126678,-0.1549295,-0.15551263,0.5383993,0.44154897,-0.13992119,0.028878564,0.60657,-0.024257116,0.10137608,0.13640171,0.0013271354,0.142177,-0.036313105,-0.1665183,0.13348563,-0.33370596,-0.5051481,-0.27332118,-0.28233412,834.87177,808.2784,804.65204,820.7692,784.90845,-0.28240966796875,-0.01025390625,0.98455810546875,4.08233642578125,0.829925537109375,-0.306549072265625,1,1.0,1.0,1.0,1.0,50.00
2022-11-23 20:27:06.286,0.47126678,-0.1549295,-0.15551263,0.5383993,0.44154897,-0.13992119,0.028878564,0.60657,-0.024257116,0.10137608,0.13640171,0.0013271354,0.142177,-0.036313105,-0.1665183,0.13348563,-0.33370596,-0.5051481,-0.27332118,-0.28233412,823.5897,809.0842,809.0842,814.7253,875.9707,-0.28240966796875,-0.01025390625,0.98455810546875,4.08233642578125,0.829925537109375,-0.306549072265625,1,1.0,1.0,1.0,1.0,50.00
2022-11-23 20:27:06.287,0.47126678,-0.1549295,-0.15551263,0.5383993,0.44154897,-0.13992119,0.028878564,0.60657,-0.024257116,0.10137608,0.13640171,0.0013271354,0.142177,-0.036313105,-0.1665183,0.13348563,-0.33370596,-0.5051481,-0.27332118,-0.28233412,785.7143,805.8608,809.89014,787.326,702.71063,-0.28240966796875,-0.01025390625,0.98455810546875,4.08233642578125,0.829925537109375,-0.306549072265625,1,1.0,1.0,1.0,1.0,50.00
2022-11-23 20:27:06.287,0.47126678,-0.1549295,-0.15551263,0.5383993,0.44154897,-0.13992119,0.028878564,0.60657,-0.024257116,0.10137608,0.13640171,0.0013271354,0.142177,-0.036313105,-0.1665183,0.13348563,-0.33370596,-0.5051481,-0.27332118,-0.28233412,781.685,809.4872,807.0696,787.326,724.4689,-0.28240966796875,-0.01025390625,0.98455810546875,4.08233642578125,0.829925537109375,-0.306549072265625,1,1.0,1.0,1.0,1.0,50.00
2022-11-23 20:27:06.287,0.47126678,-0.1549295,-0.15551263,0.5383993,0.44154897,-0.13992119,0.028878564,0.60657,-0.024257116,0.10137608,0.13640171,0.0013271354,0.142177,-0.036313105,-0.1665183,0.13348563,-0.33370596,-0.5051481,-0.27332118,-0.28233412,813.91943,809.89014,805.4579,808.68134,839.707,-0.28240966796875,-0.01025390625,0.98455810546875,4.08233642578125,0.829925537109375,-0.306549072265625,1,1.0,1.0,1.0,1.0,50.00
2022-11-23 20:27:06.287,0.47126678,-0.1549295,-0.15551263,0.5383993,0.44154897,-0.13992119,0.028878564,0.60657,-0.024257116,0.10137608,0.13640171,0.0013271354,0.142177,-0.036313105,-0.1665183,0.13348563,-0.33370596,-0.5051481,-0.27332118,-0.28233412,823.5897,809.0842,807.47253,811.50183,885.64105,-0.28240966796875,-0.01025390625,0.98455810546875,4.08233642578125,0.829925537109375,-0.306549072265625,1,1.0,1.0,1.0,1.0,50.00
2022-11-23 20:27:06.288,0.47126678,-0.1549295,-0.15551263,0.5383993,0.44154897,-0.13992119,0.028878564,0.60657,-0.024257116,0.10137608,0.13640171,0.0013271354,0.142177,-0.036313105,-0.1665183,0.13348563,-0.33370596,-0.5051481,-0.27332118,-0.28233412,795.78754,811.50183,809.89014,799.81683,938.4249,-0.28240966796875,-0.01025390625,0.98455810546875,4.08233642578125,0.829925537109375,-0.306549072265625,1,1.0,1.0,1.0,1.0,50.00
2022-11-23 20:27:06.288,0.47126678,-0.1549295,-0.15551263,0.5383993,0.44154897,-0.13992119,0.028878564,0.60657,-0.024257116,0.10137608,0.13640171,0.0013271354,0.142177,-0.036313105,-0.1665183,0.13348563,-0.33370596,-0.5051481,-0.27332118,-0.28233412,785.7143,813.91943,805.4579,788.93774,679.7436,-0.28240966796875,-0.01025390625,0.98455810546875,4.08233642578125,0.829925537109375,-0.306549072265625,1,1.0,1.0,1.0,1.0,50.00
2022-11-23 20:27:06.288,0.47126678,-0.1549295,-0.15551263,0.5383993,0.44154897,-0.13992119,0.028878564,0.60657,-0.024257116,0.10137608,0.13640171,0.0013271354,0.142177,-0.036313105,-0.1665183,0.13348563,-0.33370596,-0.5051481,-0.27332118,-0.28233412,812.3077,812.3077,804.2491,801.4286,676.52014,-0.28240966796875,-0.01025390625,0.98455810546875,4.08233642578125,0.829925537109375,-0.306549072265625,1,1.0,1.0,1.0,1.0,50.00
2022-11-23 20:27:06.288,0.4937489,-0.15851015,-0.10425773,0.546983,0.3182707,-0.095851615,0.0926072,0.4861032,-0.120598145,0.105806954,0.13116421,-0.02173757,0.14101243,-0.03959571,-0.18478537,0.13656366,-0.32176954,-0.47381112,-0.30849403,-0.2786962,832.4542,805.4579,801.8315,819.9634,950.9158,-0.28240966796875,-0.01025390625,0.98455810546875,4.08233642578125,0.829925537109375,-0.306549072265625,1,1.0,1.0,1.0,1.0,50.00
2022-11-23 20:27:06.311,0.4937489,-0.15851015,-0.10425773,0.546983,0.3182707,-0.095851615,0.0926072,0.4861032,-0.120598145,0.105806954,0.13116421,-0.02173757,0.14101243,-0.03959571,-0.18478537,0.13656366,-0.32176954,-0.47381112,-0.30849403,-0.2786962,810.293,803.44324,798.60803,799.011,807.8755,-0.28240966796875,-0.01025390625,0.98455810546875,4.08233642578125,0.829925537109375,-0.306549072265625,1,1.0,1.0,1.0,1.0,50.00
2022-11-23 20:27:06.312,0.4937489,-0.15851015,-0.10425773,0.546983,0.3182707,-0.095851615,0.0926072,0.4861032,-0.120598145,0.105806954,0.13116421,-0.02173757,0.14101243,-0.03959571,-0.18478537,0.13656366,-0.32176954,-0.47381112,-0.30849403,-0.2786962,773.6264,801.4286,799.011,774.0293,554.43225,-0.28240966796875,-0.01025390625,0.98455810546875,4.08233642578125,0.829925537109375,-0.306549072265625,1,1.0,1.0,1.0,1.0,50.00
2022-11-23 20:27:06.312,0.4937489,-0.15851015,-0.10425773,0.546983,0.3182707,-0.095851615,0.0926072,0.4861032,-0.120598145,0.105806954,0.13116421,-0.02173757,0.14101243,-0.03959571,-0.18478537,0.13656366,-0.32176954,-0.47381112,-0.30849403,-0.2786962,791.75824,802.23444,799.011,789.7436,696.26373,-0.28240966796875,-0.01025390625,0.98455810546875,4.08233642578125,0.829925537109375,-0.306549072265625,1,1.0,1.0,1.0,1.0,50.00
2022-11-23 20:27:06.312,0.4937489,-0.15851015,-0.10425773,0.546983,0.3182707,-0.095851615,0.0926072,0.4861032,-0.120598145,0.105806954,0.13116421,-0.02173757,0.14101243,-0.03959571,-0.18478537,0.13656366,-0.32176954,-0.47381112,-0.30849403,-0.2786962,830.84247,806.26373,796.1905,810.696,994.83514,-0.28240966796875,-0.01025390625,0.98455810546875,4.08233642578125,0.829925537109375,-0.306549072265625,1,1.0,1.0,1.0,1.0,50.00
2022-11-23 20:27:06.312,0.4937489,-0.15851015,-0.10425773,0.546983,0.3182707,-0.095851615,0.0926072,0.4861032,-0.120598145,0.105806954,0.13116421,-0.02173757,0.14101243,-0.03959571,-0.18478537,0.13656366,-0.32176954,-0.47381112,-0.30849403,-0.2786962,818.3516,803.44324,796.5934,802.6374,921.0989,-0.28240966796875,-0.01025390625,0.98455810546875,4.08233642578125,0.829925537109375,-0.306549072265625,1,1.0,1.0,1.0,1.0,50.00
2022-11-23 20:27:06.313,0.4937489,-0.15851015,-0.10425773,0.546983,0.3182707,-0.095851615,0.0926072,0.4861032,-0.120598145,0.105806954,0.13116421,-0.02173757,0.14101243,-0.03959571,-0.18478537,0.13656366,-0.32176954,-0.47381112,-0.30849403,-0.2786962,780.87915,802.23444,797.8022,778.46155,692.6374,-0.28240966796875,-0.01025390625,0.98455810546875,4.08233642578125,0.829925537109375,-0.306549072265625,1,1.0,1.0,1.0,1.0,50.00
2022-11-23 20:27:06.313,0.4937489,-0.15851015,-0.10425773,0.546983,0.3182707,-0.095851615,0.0926072,0.4861032,-0.120598145,0.105806954,0.13116421,-0.02173757,0.14101243,-0.03959571,-0.18478537,0.13656366,-0.32176954,-0.47381112,-0.30849403,-0.2786962,782.8938,802.23444,799.41394,787.326,702.71063,-0.28240966796875,-0.01025390625,0.98455810546875,4.08233642578125,0.829925537109375,-0.306549072265625,1,1.0,1.0,1.0,1.0,50.00
2022-11-23 20:27:06.313,0.4937489,-0.15851015,-0.10425773,0.546983,0.3182707,-0.095851615,0.0926072,0.4861032,-0.120598145,0.105806954,0.13116421,-0.02173757,0.14101243,-0.03959571,-0.18478537,0.13656366,-0.32176954,-0.47381112,-0.30849403,-0.2786962,818.7546,798.60803,798.60803,815.12823,1073.0037,-0.28240966796875,-0.01025390625,0.98455810546875,4.08233642578125,0.829925537109375,-0.306549072265625,1,1.0,1.0,1.0,1.0,50.00
2022-11-23 20:27:06.313,0.4937489,-0.15851015,-0.10425773,0.546983,0.3182707,-0.095851615,0.0926072,0.4861032,-0.120598145,0.105806954,0.13116421,-0.02173757,0.14101243,-0.03959571,-0.18478537,0.13656366,-0.32176954,-0.47381112,-0.30849403,-0.2786962,815.5311,799.81683,799.011,805.05493,1058.4982,-0.28240966796875,-0.01025390625,0.98455810546875,4.08233642578125,0.829925537109375,-0.306549072265625,1,1.0,1.0,1.0,1.0,50.00
2022-11-23 20:27:06.313,0.4937489,-0.15851015,-0.10425773,0.546983,0.3182707,-0.095851615,0.0926072,0.4861032,-0.120598145,0.105806954,0.13116421,-0.02173757,0.14101243,-0.03959571,-0.18478537,0.13656366,-0.32176954,-0.47381112,-0.30849403,-0.2786962,775.64105,799.81683,796.5934,774.83514,689.011,-0.28240966796875,-0.01025390625,0.98455810546875,4.08233642578125,0.829925537109375,-0.306549072265625,1,1.0,1.0,1.0,1.0,50.00
2022-11-23 20:27:06.314,0.4937489,-0.15851015,-0.10425773,0.546983,0.3182707,-0.095851615,0.0926072,0.4861032,-0.120598145,0.105806954,0.13116421,-0.02173757,0.14101243,-0.03959571,-0.18478537,0.13656366,-0.32176954,-0.47381112,-0.30849403,-0.2786962,773.6264,795.38464,795.78754,770.40295,603.5897,-0.28240966796875,-0.01025390625,0.98455810546875,4.08233642578125,0.829925537109375,-0.306549072265625,1,1.0,1.0,1.0,1.0,50.00
2022-11-23 20:27:06.314,0.4937489,-0.15851015,-0.10425773,0.546983,0.3182707,-0.095851615,0.0926072,0.4861032,-0.120598145,0.105806954,0.13116421,-0.02173757,0.14101243,-0.03959571,-0.18478537,0.13656366,-0.32176954,-0.47381112,-0.30849403,-0.2786962,811.0989,794.17584,797.3993,793.36993,758.71796,-0.28240966796875,-0.01025390625,0.98455810546875,4.08233642578125,0.829925537109375,-0.306549072265625,1,1.0,1.0,1.0,1.0,50.00
2022-11-23 20:27:06.378,0.4937489,-0.15851015,-0.10425773,0.546983,0.3182707,-0.095851615,0.0926072,0.4861032,-0.120598145,0.105806954,0.13116421,-0.02173757,0.14101243,-0.03959571,-0.18478537,0.13656366,-0.32176954,-0.47381112,-0.30849403,-0.2786962,817.5458,798.60803,795.78754,802.23444,872.74725,-0.266357421875,-0.00799560546875,0.98175048828125,3.170166015625,-1.652374267578125,0.052337646484375,1,1.0,1.0,1.0,1.0,50.00
2022-11-23 20:27:06.378,0.4937489,-0.15851015,-0.10425773,0.546983,0.3182707,-0.095851615,0.0926072,0.4861032,-0.120598145,0.105806954,0.13116421,-0.02173757,0.14101243,-0.03959571,-0.18478537,0.13656366,-0.32176954,-0.47381112,-0.30849403,-0.2786962,779.2674,798.60803,795.38464,778.86444,765.56775,-0.266357421875,-0.00799560546875,0.98175048828125,3.170166015625,-1.652374267578125,0.052337646484375,1,1.0,1.0,1.0,1.0,50.00
2022-11-23 20:27:06.378,0.4937489,-0.15851015,-0.10425773,0.546983,0.3182707,-0.095851615,0.0926072,0.4861032,-0.120598145,0.105806954,0.13116421,-0.02173757,0.14101243,-0.03959571,-0.18478537,0.13656366,-0.32176954,-0.47381112,-0.30849403,-0.2786962,765.9707,796.1905,799.81683,769.19415,653.95605,-0.266357421875,-0.00799560546875,0.98175048828125,3.170166015625,-1.652374267578125,0.052337646484375,1,1.0,1.0,1.0,1.0,50.00
2022-11-23 20:27:06.379,0.4937489,-0.15851015,-0.10425773,0.546983,0.3182707,-0.095851615,0.0926072,0.4861032,-0.120598145,0.105806954,0.13116421,-0.02173757,0.14101243,-0.03959571,-0.18478537,0.13656366,-0.32176954,-0.47381112,-0.30849403,-0.2786962,797.3993,796.5934,803.0403,794.57874,766.3736,-0.266357421875,-0.00799560546875,0.98175048828125,3.170166015625,-1.652374267578125,0.052337646484375,1,1.0,1.0,1.0,1.0,50.00
2022-11-23 20:27:06.379,0.4937489,-0.15851015,-0.10425773,0.546983,0.3182707,-0.095851615,0.0926072,0.4861032,-0.120598145,0.105806954,0.13116421,-0.02173757,0.14101243,-0.03959571,-0.18478537,0.13656366,-0.32176954,-0.47381112,-0.30849403,-0.2786962,816.7399,795.38464,801.8315,810.293,892.8938,-0.266357421875,-0.00799560546875,0.98175048828125,3.170166015625,-1.652374267578125,0.052337646484375,1,1.0,1.0,1.0,1.0,50.00
2022-11-23 20:27:06.379,0.4937489,-0.15851015,-0.10425773,0.546983,0.3182707,-0.095851615,0.0926072,0.4861032,-0.120598145,0.105806954,0.13116421,-0.02173757,0.14101243,-0.03959571,-0.18478537,0.13656366,-0.32176954,-0.47381112,-0.30849403,-0.2786962,797.3993,797.8022,799.81683,793.7729,815.9341,-0.266357421875,-0.00799560546875,0.98175048828125,3.170166015625,-1.652374267578125,0.052337646484375,1,1.0,1.0,1.0,1.0,50.00
2022-11-23 20:27:06.379,0.4937489,-0.15851015,-0.10425773,0.546983,0.3182707,-0.095851615,0.0926072,0.4861032,-0.120598145,0.105806954,0.13116421,-0.02173757,0.14101243,-0.03959571,-0.18478537,0.13656366,-0.32176954,-0.47381112,-0.30849403,-0.2786962,767.5824,803.44324,799.81683,776.8498,819.5604,-0.266357421875,-0.00799560546875,0.98175048828125,3.170166015625,-1.652374267578125,0.052337646484375,1,1.0,1.0,1.0,1.0,50.00
2022-11-23 20:27:06.380,0.4937489,-0.15851015,-0.10425773,0.546983,0.3182707,-0.095851615,0.0926072,0.4861032,-0.120598145,0.105806954,0.13116421,-0.02173757,0.14101243,-0.03959571,-0.18478537,0.13656366,-0.32176954,-0.47381112,-0.30849403,-0.2786962,783.2967,803.0403,801.4286,797.8022,1089.1208,-0.266357421875,-0.00799560546875,0.98175048828125,3.170166015625,-1.652374267578125,0.052337646484375,1,1.0,1.0,1.0,1.0,50.00
2022-11-23 20:27:06.380,0.4937489,-0.15851015,-0.10425773,0.546983,0.3182707,-0.095851615,0.0926072,0.4861032,-0.120598145,0.105806954,0.13116421,-0.02173757,0.14101243,-0.03959571,-0.18478537,0.13656366,-0.32176954,-0.47381112,-0.30849403,-0.2786962,823.1868,804.65204,806.26373,825.2015,986.77655,-0.266357421875,-0.00799560546875,0.98175048828125,3.170166015625,-1.652374267578125,0.052337646484375,1,1.0,1.0,1.0,1.0,50.00
2022-11-23 20:27:06.380,0.4937489,-0.15851015,-0.10425773,0.546983,0.3182707,-0.095851615,0.0926072,0.4861032,-0.120598145,0.105806954,0.13116421,-0.02173757,0.14101243,-0.03959571,-0.18478537,0.13656366,-0.32176954,-0.47381112,-0.30849403,-0.2786962,810.696,805.8608,809.4872,814.3223,792.5641,-0.266357421875,-0.00799560546875,0.98175048828125,3.170166015625,-1.652374267578125,0.052337646484375,1,1.0,1.0,1.0,1.0,50.00
2022-11-23 20:27:06.380,0.4937489,-0.15851015,-0.10425773,0.546983,0.3182707,-0.095851615,0.0926072,0.4861032,-0.120598145,0.105806954,0.13116421,-0.02173757,0.14101243,-0.03959571,-0.18478537,0.13656366,-0.32176954,-0.47381112,-0.30849403,-0.2786962,778.0586,805.8608,805.8608,792.1612,681.3553,-0.266357421875,-0.00799560546875,0.98175048828125,3.170166015625,-1.652374267578125,0.052337646484375,1,1.0,1.0,1.0,1.0,50.00
2022-11-23 20:27:06.380,0.4937489,-0.15851015,-0.10425773,0.546983,0.3182707,-0.095851615,0.0926072,0.4861032,-0.120598145,0.105806954,0.13116421,-0.02173757,0.14101243,-0.03959571,-0.18478537,0.13656366,-0.32176954,-0.47381112,-0.30849403,-0.2786962,784.10254,805.8608,805.8608,798.60803,604.3956,-0.266357421875,-0.00799560546875,0.98175048828125,3.170166015625,-1.652374267578125,0.052337646484375,1,1.0,1.0,1.0,1.0,50.00
2022-11-23 20:27:06.427,0.4937489,-0.15851015,-0.10425773,0.546983,0.3182707,-0.095851615,0.0926072,0.4861032,-0.120598145,0.105806954,0.13116421,-0.02173757,0.14101243,-0.03959571,-0.18478537,0.13656366,-0.32176954,-0.47381112,-0.30849403,-0.2786962,819.15753,804.2491,804.65204,830.4396,729.304,-0.2730712890625,-0.01019287109375,0.978271484375,3.70849609375,-1.622467041015625,0.538330078125,1,1.0,1.0,1.0,1.0,50.00
2022-11-23 20:27:06.427,0.5223875,-0.15535758,-0.054499153,0.5661131,0.24464765,-0.022686359,0.2052097,0.40381676,-0.16195855,0.09268049,0.1326526,-0.0264884,0.14678806,-0.050709784,-0.20662828,0.14405526,-0.3170147,-0.4407427,-0.3453057,-0.27796483,824.3956,807.0696,804.65204,830.0366,844.5421,-0.2730712890625,-0.01019287109375,0.978271484375,3.70849609375,-1.622467041015625,0.538330078125,1,1.0,1.0,1.0,1.0,50.00
2022-11-23 20:27:06.428,0.5223875,-0.15535758,-0.054499153,0.5661131,0.24464765,-0.022686359,0.2052097,0.40381676,-0.16195855,0.09268049,0.1326526,-0.0264884,0.14678806,-0.050709784,-0.20662828,0.14405526,-0.3170147,-0.4407427,-0.3453057,-0.27796483,785.31134,809.89014,810.293,795.78754,732.1245,-0.2730712890625,-0.01019287109375,0.978271484375,3.70849609375,-1.622467041015625,0.538330078125,1,1.0,1.0,1.0,1.0,50.00
2022-11-23 20:27:06.429,0.5223875,-0.15535758,-0.054499153,0.5661131,0.24464765,-0.022686359,0.2052097,0.40381676,-0.16195855,0.09268049,0.1326526,-0.0264884,0.14678806,-0.050709784,-0.20662828,0.14405526,-0.3170147,-0.4407427,-0.3453057,-0.27796483,777.6557,804.2491,808.68134,792.1612,613.663,-0.2730712890625,-0.01019287109375,0.978271484375,3.70849609375,-1.622467041015625,0.538330078125,1,1.0,1.0,1.0,1.0,50.00
2022-11-23 20:27:06.429,0.5223875,-0.15535758,-0.054499153,0.5661131,0.24464765,-0.022686359,0.2052097,0.40381676,-0.16195855,0.09268049,0.1326526,-0.0264884,0.14678806,-0.050709784,-0.20662828,0.14405526,-0.3170147,-0.4407427,-0.3453057,-0.27796483,813.91943,806.6667,807.47253,819.15753,745.42126,-0.2730712890625,-0.01019287109375,0.978271484375,3.70849609375,-1.622467041015625,0.538330078125,1,1.0,1.0,1.0,1.0,50.00
2022-11-23 20:27:06.429,0.5223875,-0.15535758,-0.054499153,0.5661131,0.24464765,-0.022686359,0.2052097,0.40381676,-0.16195855,0.09268049,0.1326526,-0.0264884,0.14678806,-0.050709784,-0.20662828,0.14405526,-0.3170147,-0.4407427,-0.3453057,-0.27796483,825.6044,809.4872,807.47253,825.6044,899.34064,-0.2730712890625,-0.01019287109375,0.978271484375,3.70849609375,-1.622467041015625,0.538330078125,1,1.0,1.0,1.0,1.0,50.00
2022-11-23 20:27:06.429,0.5223875,-0.15535758,-0.054499153,0.5661131,0.24464765,-0.022686359,0.2052097,0.40381676,-0.16195855,0.09268049,0.1326526,-0.0264884,0.14678806,-0.050709784,-0.20662828,0.14405526,-0.3170147,-0.4407427,-0.3453057,-0.27796483,794.17584,805.4579,805.4579,802.23444,1083.4799,-0.2730712890625,-0.01019287109375,0.978271484375,3.70849609375,-1.622467041015625,0.538330078125,1,1.0,1.0,1.0,1.0,50.00
2022-11-23 20:27:06.430,0.5223875,-0.15535758,-0.054499153,0.5661131,0.24464765,-0.022686359,0.2052097,0.40381676,-0.16195855,0.09268049,0.1326526,-0.0264884,0.14678806,-0.050709784,-0.20662828,0.14405526,-0.3170147,-0.4407427,-0.3453057,-0.27796483,774.83514,807.47253,807.0696,790.14655,911.4286,-0.2730712890625,-0.01019287109375,0.978271484375,3.70849609375,-1.622467041015625,0.538330078125,1,1.0,1.0,1.0,1.0,50.00
2022-11-23 20:27:06.430,0.5223875,-0.15535758,-0.054499153,0.5661131,0.24464765,-0.022686359,0.2052097,0.40381676,-0.16195855,0.09268049,0.1326526,-0.0264884,0.14678806,-0.050709784,-0.20662828,0.14405526,-0.3170147,-0.4407427,-0.3453057,-0.27796483,807.0696,810.696,813.1135,814.7253,676.52014,-0.2730712890625,-0.01019287109375,0.978271484375,3.70849609375,-1.622467041015625,0.538330078125,1,1.0,1.0,1.0,1.0,50.00
2022-11-23 20:27:06.430,0.5223875,-0.15535758,-0.054499153,0.5661131,0.24464765,-0.022686359,0.2052097,0.40381676,-0.16195855,0.09268049,0.1326526,-0.0264884,0.14678806,-0.050709784,-0.20662828,0.14405526,-0.3170147,-0.4407427,-0.3453057,-0.27796483,835.2747,808.68134,811.9048,831.2454,849.3773,-0.2730712890625,-0.01019287109375,0.978271484375,3.70849609375,-1.622467041015625,0.538330078125,1,1.0,1.0,1.0,1.0,50.00
2022-11-23 20:27:06.430,0.5223875,-0.15535758,-0.054499153,0.5661131,0.24464765,-0.022686359,0.2052097,0.40381676,-0.16195855,0.09268049,0.1326526,-0.0264884,0.14678806,-0.050709784,-0.20662828,0.14405526,-0.3170147,-0.4407427,-0.3453057,-0.27796483,811.9048,803.0403,807.47253,812.71063,874.7619,-0.2730712890625,-0.01019287109375,0.978271484375,3.70849609375,-1.622467041015625,0.538330078125,1,1.0,1.0,1.0,1.0,50.00
2022-11-23 20:27:06.431,0.5223875,-0.15535758,-0.054499153,0.5661131,0.24464765,-0.022686359,0.2052097,0.40381676,-0.16195855,0.09268049,0.1326526,-0.0264884,0.14678806,-0.050709784,-0.20662828,0.14405526,-0.3170147,-0.4407427,-0.3453057,-0.27796483,782.8938,801.8315,809.0842,793.7729,670.4762,-0.2730712890625,-0.01019287109375,0.978271484375,3.70849609375,-1.622467041015625,0.538330078125,1,1.0,1.0,1.0,1.0,50.00
2022-11-23 20:27:06.477,0.5223875,-0.15535758,-0.054499153,0.5661131,0.24464765,-0.022686359,0.2052097,0.40381676,-0.16195855,0.09268049,0.1326526,-0.0264884,0.14678806,-0.050709784,-0.20662828,0.14405526,-0.3170147,-0.4407427,-0.3453057,-0.27796483,796.5934,810.696,805.8608,801.02563,651.9414,-0.27166748046875,-0.008544921875,0.98419189453125,4.523468017578125,-0.40374755859375,-0.179443359375,1,1.0,1.0,1.0,1.0,50.00
2022-11-23 20:27:06.477,0.5223875,-0.15535758,-0.054499153,0.5661131,0.24464765,-0.022686359,0.2052097,0.40381676,-0.16195855,0.09268049,0.1326526,-0.0264884,0.14678806,-0.050709784,-0.20662828,0.14405526,-0.3170147,-0.4407427,-0.3453057,-0.27796483,834.4689,814.7253,799.011,825.6044,910.6227,-0.27166748046875,-0.008544921875,0.98419189453125,4.523468017578125,-0.40374755859375,-0.179443359375,1,1.0,1.0,1.0,1.0,50.00
2022-11-23 20:27:06.477,0.5223875,-0.15535758,-0.054499153,0.5661131,0.24464765,-0.022686359,0.2052097,0.40381676,-0.16195855,0.09268049,0.1326526,-0.0264884,0.14678806,-0.050709784,-0.20662828,0.14405526,-0.3170147,-0.4407427,-0.3453057,-0.27796483,832.0513,817.5458,799.011,814.7253,1030.2931,-0.27166748046875,-0.008544921875,0.98419189453125,4.523468017578125,-0.40374755859375,-0.179443359375,1,1.0,1.0,1.0,1.0,50.00
2022-11-23 20:27:06.478,0.5223875,-0.15535758,-0.054499153,0.5661131,0.24464765,-0.022686359,0.2052097,0.40381676,-0.16195855,0.09268049,0.1326526,-0.0264884,0.14678806,-0.050709784,-0.20662828,0.14405526,-0.3170147,-0.4407427,-0.3453057,-0.27796483,792.5641,814.7253,806.6667,785.7143,788.93774,-0.27166748046875,-0.008544921875,0.98419189453125,4.523468017578125,-0.40374755859375,-0.179443359375,1,1.0,1.0,1.0,1.0,50.00
2022-11-23 20:27:06.478,0.5223875,-0.15535758,-0.054499153,0.5661131,0.24464765,-0.022686359,0.2052097,0.40381676,-0.16195855,0.09268049,0.1326526,-0.0264884,0.14678806,-0.050709784,-0.20662828,0.14405526,-0.3170147,-0.4407427,-0.3453057,-0.27796483,788.93774,807.8755,804.2491,787.326,726.08057,-0.27166748046875,-0.008544921875,0.98419189453125,4.523468017578125,-0.40374755859375,-0.179443359375,1,1.0,1.0,1.0,1.0,50.00
2022-11-23 20:27:06.478,0.5223875,-0.15535758,-0.054499153,0.5661131,0.24464765,-0.022686359,0.2052097,0.40381676,-0.16195855,0.09268049,0.1326526,-0.0264884,0.14678806,-0.050709784,-0.20662828,0.14405526,-0.3170147,-0.4407427,-0.3453057,-0.27796483,827.2161,808.68134,797.8022,811.0989,967.4359,-0.27166748046875,-0.008544921875,0.98419189453125,4.523468017578125,-0.40374755859375,-0.179443359375,1,1.0,1.0,1.0,1.0,50.00
2022-11-23 20:27:06.478,0.5223875,-0.15535758,-0.054499153,0.5661131,0.24464765,-0.022686359,0.2052097,0.40381676,-0.16195855,0.09268049,0.1326526,-0.0264884,0.14678806,-0.050709784,-0.20662828,0.14405526,-0.3170147,-0.4407427,-0.3453057,-0.27796483,829.2308,808.2784,800.2198,811.0989,974.2857,-0.27166748046875,-0.008544921875,0.98419189453125,4.523468017578125,-0.40374755859375,-0.179443359375,1,1.0,1.0,1.0,1.0,50.00
