TimeStamp,Delta_TP9,Delta_AF7,Delta_AF8,Delta_TP10,Theta_TP9,Theta_AF7,Theta_AF8,Theta_TP10,Alpha_TP9,Alpha_AF7,Alpha_AF8,Alpha_TP10,Beta_TP9,Beta_AF7,Beta_AF8,Beta_TP10,Gamma_TP9,Gamma_AF7,Gamma_AF8,Gamma_TP10,RAW_TP9,RAW_AF7,RAW_AF8,RAW_TP10,AUX_RIGHT,Accelerometer_X,Accelerometer_Y,Accelerometer_Z,Gyro_X,Gyro_Y,Gyro_Z,HeadBandOn,HSI_TP9,HSI_AF7,HSI_AF8,HSI_TP10,Battery,Elements
2022-11-23 20:26:31.475,0.70210826,0.11221624,-0.0094372835,0.70633274,0.40132982,-0.021700995,-0.006743962,0.36276084,0.5903701,0.23212133,0.08358513,0.6380301,0.19914699,-0.08524752,-0.113122314,0.2755441,-0.14031355,-0.45517528,-0.4222765,-0.09628696,795.78754,802.23444,803.44324,805.4579,627.76556,-0.238525390625,-0.039306640625,0.99072265625,3.648681640625,0.16448974609375,0.157012939453125,1,1.0,1.0,1.0,1.0,50.00
2022-11-23 20:26:31.476,0.70210826,0.11221624,-0.0094372835,0.70633274,0.40132982,-0.021700995,-0.006743962,0.36276084,0.5903701,0.23212133,0.08358513,0.6380301,0.19914699,-0.08524752,-0.113122314,0.2755441,-0.14031355,-0.45517528,-0.4222765,-0.09628696,821.1722,803.44324,800.6227,820.3663,817.9487,-0.238525390625,-0.039306640625,0.99072265625,3.648681640625,0.16448974609375,0.157012939453125,1,1.0,1.0,1.0,1.0,50.00
2022-11-23 20:26:31.476,0.70210826,0.11221624,-0.0094372835,0.70633274,0.40132982,-0.021700995,-0.006743962,0.36276084,0.5903701,0.23212133,0.08358513,0.6380301,0.19914699,-0.08524752,-0.113122314,0.2755441,-0.14031355,-0.45517528,-0.4222765,-0.09628696,815.5311,800.2198,804.65204,806.26373,871.13556,-0.238525390625,-0.039306640625,0.99072265625,3.648681640625,0.16448974609375,0.157012939453125,1,1.0,1.0,1.0,1.0,50.00
2022-11-23 20:26:31.476,0.70210826,0.11221624,-0.0094372835,0.70633274,0.40132982,-0.021700995,-0.006743962,0.36276084,0.5903701,0.23212133,0.08358513,0.6380301,0.19914699,-0.08524752,-0.113122314,0.2755441,-0.14031355,-0.45517528,-0.4222765,-0.09628696,784.10254,799.81683,808.68134,783.69965,735.34796,-0.238525390625,-0.039306640625,0.99072265625,3.648681640625,0.16448974609375,0.157012939453125,1,1.0,1.0,1.0,1.0,50.00
2022-11-23 20:26:31.477,0.70210826,0.11221624,-0.0094372835,0.70633274,0.40132982,-0.021700995,-0.006743962,0.36276084,0.5903701,0.23212133,0.08358513,0.6380301,0.19914699,-0.08524752,-0.113122314,0.2755441,-0.14031355,-0.45517528,-0.4222765,-0.09628696,782.8938,801.8315,810.293,787.72894,630.18317,-0.238525390625,-0.039306640625,0.99072265625,3.648681640625,0.16448974609375,0.157012939453125,1,1.0,1.0,1.0,1.0,50.00
2022-11-23 20:26:31.477,0.70210826,0.11221624,-0.0094372835,0.70633274,0.40132982,-0.021700995,-0.006743962,0.36276084,0.5903701,0.23212133,0.08358513,0.6380301,0.19914699,-0.08524752,-0.113122314,0.2755441,-0.14031355,-0.45517528,-0.4222765,-0.09628696,823.9927,803.44324,806.26373,811.9048,839.707,-0.238525390625,-0.039306640625,0.99072265625,3.648681640625,0.16448974609375,0.157012939453125,1,1.0,1.0,1.0,1.0,50.00
2022-11-23 20:26:31.477,0.70210826,0.11221624,-0.0094372835,0.70633274,0.40132982,-0.021700995,-0.006743962,0.36276084,0.5903701,0.23212133,0.08358513,0.6380301,0.19914699,-0.08524752,-0.113122314,0.2755441,-0.14031355,-0.45517528,-0.4222765,-0.09628696,832.0513,804.65204,800.2198,813.91943,1065.751,-0.238525390625,-0.039306640625,0.99072265625,3.648681640625,0.16448974609375,0.157012939453125,1,1.0,1.0,1.0,1.0,50.00
2022-11-23 20:26:31.477,0.70210826,0.11221624,-0.0094372835,0.70633274,0.40132982,-0.021700995,-0.006743962,0.36276084,0.5903701,0.23212133,0.08358513,0.6380301,0.19914699,-0.08524752,-0.113122314,0.2755441,-0.14031355,-0.45517528,-0.4222765,-0.09628696,786.9231,807.47253,795.38464,780.87915,969.85345,-0.238525390625,-0.039306640625,0.99072265625,3.648681640625,0.16448974609375,0.157012939453125,1,1.0,1.0,1.0,1.0,50.00
2022-11-23 20:26:31.477,0.70210826,0.11221624,-0.0094372835,0.70633274,0.40132982,-0.021700995,-0.006743962,0.36276084,0.5903701,0.23212133,0.08358513,0.6380301,0.19914699,-0.08524752,-0.113122314,0.2755441,-0.14031355,-0.45517528,-0.4222765,-0.09628696,772.01465,806.6667,797.8022,770.40295,686.1905,-0.238525390625,-0.039306640625,0.99072265625,3.648681640625,0.16448974609375,0.157012939453125,1,1.0,1.0,1.0,1.0,50.00
2022-11-23 20:26:31.478,0.70886874,0.102972075,-0.016795743,0.6918004,0.4244509,0.0027726092,-0.006542734,0.37424704,0.59471714,0.25510406,0.16670471,0.62454295,0.17912848,-0.0731322,-0.10482594,0.2511147,-0.1353328,-0.4517529,-0.41461372,-0.10003614,807.8755,803.0403,803.44324,800.6227,721.6484,-0.238525390625,-0.039306640625,0.99072265625,3.648681640625,0.16448974609375,0.157012939453125,1,1.0,1.0,1.0,1.0,50.00
2022-11-23 20:26:31.480,0.70886874,0.102972075,-0.016795743,0.6918004,0.4244509,0.0027726092,-0.006542734,0.37424704,0.59471714,0.25510406,0.16670471,0.62454295,0.17912848,-0.0731322,-0.10482594,0.2511147,-0.1353328,-0.4517529,-0.41461372,-0.10003614,828.022,803.44324,799.81683,814.3223,843.73627,-0.238525390625,-0.039306640625,0.99072265625,3.648681640625,0.16448974609375,0.157012939453125,1,1.0,1.0,1.0,1.0,50.00
2022-11-23 20:26:31.480,0.70886874,0.102972075,-0.016795743,0.6918004,0.4244509,0.0027726092,-0.006542734,0.37424704,0.59471714,0.25510406,0.16670471,0.62454295,0.17912848,-0.0731322,-0.10482594,0.2511147,-0.1353328,-0.4517529,-0.41461372,-0.10003614,793.7729,807.47253,801.4286,792.5641,716.4103,-0.238525390625,-0.039306640625,0.99072265625,3.648681640625,0.16448974609375,0.157012939453125,1,1.0,1.0,1.0,1.0,50.00
2022-11-23 20:26:31.504,0.70886874,0.102972075,-0.016795743,0.6918004,0.4244509,0.0027726092,-0.006542734,0.37424704,0.59471714,0.25510406,0.16670471,0.62454295,0.17912848,-0.0731322,-0.10482594,0.2511147,-0.1353328,-0.4517529,-0.41461372,-0.10003614,766.77655,808.2784,804.65204,777.6557,562.49084,-0.238525390625,-0.039306640625,0.99072265625,3.648681640625,0.16448974609375,0.157012939453125,1,1.0,1.0,1.0,1.0,50.00
2022-11-23 20:26:31.505,0.70886874,0.102972075,-0.016795743,0.6918004,0.4244509,0.0027726092,-0.006542734,0.37424704,0.59471714,0.25510406,0.16670471,0.62454295,0.17912848,-0.0731322,-0.10482594,0.2511147,-0.1353328,-0.4517529,-0.41461372,-0.10003614,794.9817,804.65204,802.23444,797.3993,669.67035,-0.238525390625,-0.039306640625,0.99072265625,3.648681640625,0.16448974609375,0.157012939453125,1,1.0,1.0,1.0,1.0,50.00
2022-11-23 20:26:31.505,0.70886874,0.102972075,-0.016795743,0.6918004,0.4244509,0.0027726092,-0.006542734,0.37424704,0.59471714,0.25510406,0.16670471,0.62454295,0.17912848,-0.0731322,-0.10482594,0.2511147,-0.1353328,-0.4517529,-0.41461372,-0.10003614,830.4396,805.4579,803.8461,818.7546,838.49817,-0.238525390625,-0.039306640625,0.99072265625,3.648681640625,0.16448974609375,0.157012939453125,1,1.0,1.0,1.0,1.0,50.00
2022-11-23 20:26:31.505,0.70886874,0.102972075,-0.016795743,0.6918004,0.4244509,0.0027726092,-0.006542734,0.37424704,0.59471714,0.25510406,0.16670471,0.62454295,0.17912848,-0.0731322,-0.10482594,0.2511147,-0.1353328,-0.4517529,-0.41461372,-0.10003614,809.4872,807.0696,801.4286,801.02563,805.4579,-0.238525390625,-0.039306640625,0.99072265625,3.648681640625,0.16448974609375,0.157012939453125,1,1.0,1.0,1.0,1.0,50.00
2022-11-23 20:26:31.506,0.70886874,0.102972075,-0.016795743,0.6918004,0.4244509,0.0027726092,-0.006542734,0.37424704,0.59471714,0.25510406,0.16670471,0.62454295,0.17912848,-0.0731322,-0.10482594,0.2511147,-0.1353328,-0.4517529,-0.41461372,-0.10003614,771.6117,802.6374,798.60803,780.07324,686.5934,-0.238525390625,-0.039306640625,0.99072265625,3.648681640625,0.16448974609375,0.157012939453125,1,1.0,1.0,1.0,1.0,50.00
2022-11-23 20:26:31.506,0.70886874,0.102972075,-0.016795743,0.6918004,0.4244509,0.0027726092,-0.006542734,0.37424704,0.59471714,0.25510406,0.16670471,0.62454295,0.17912848,-0.0731322,-0.10482594,0.2511147,-0.1353328,-0.4517529,-0.41461372,-0.10003614,786.9231,801.4286,804.2491,791.3553,650.32965,-0.238525390625,-0.039306640625,0.99072265625,3.648681640625,0.16448974609375,0.157012939453125,1,1.0,1.0,1.0,1.0,50.00
2022-11-23 20:26:31.506,0.70886874,0.102972075,-0.016795743,0.6918004,0.4244509,0.0027726092,-0.006542734,0.37424704,0.59471714,0.25510406,0.16670471,0.62454295,0.17912848,-0.0731322,-0.10482594,0.2511147,-0.1353328,-0.4517529,-0.41461372,-0.10003614,825.6044,803.44324,804.65204,811.9048,992.4176,-0.238525390625,-0.039306640625,0.99072265625,3.648681640625,0.16448974609375,0.157012939453125,1,1.0,1.0,1.0,1.0,50.00
2022-11-23 20:26:31.507,0.70886874,0.102972075,-0.016795743,0.6918004,0.4244509,0.0027726092,-0.006542734,0.37424704,0.59471714,0.25510406,0.16670471,0.62454295,0.17912848,-0.0731322,-0.10482594,0.2511147,-0.1353328,-0.4517529,-0.41461372,-0.10003614,819.5604,806.26373,802.6374,815.12823,1141.9048,-0.238525390625,-0.039306640625,0.99072265625,3.648681640625,0.16448974609375,0.157012939453125,1,1.0,1.0,1.0,1.0,50.00
2022-11-23 20:26:31.507,0.70886874,0.102972075,-0.016795743,0.6918004,0.4244509,0.0027726092,-0.006542734,0.37424704,0.59471714,0.25510406,0.16670471,0.62454295,0.17912848,-0.0731322,-0.10482594,0.2511147,-0.1353328,-0.4517529,-0.41461372,-0.10003614,786.9231,809.89014,805.05493,796.1905,703.5165,-0.238525390625,-0.039306640625,0.99072265625,3.648681640625,0.16448974609375,0.157012939453125,1,1.0,1.0,1.0,1.0,50.00
2022-11-23 20:26:31.507,0.70886874,0.102972075,-0.016795743,0.6918004,0.4244509,0.0027726092,-0.006542734,0.37424704,0.59471714,0.25510406,0.16670471,0.62454295,0.17912848,-0.0731322,-0.10482594,0.2511147,-0.1353328,-0.4517529,-0.41461372,-0.10003614,783.69965,807.0696,806.26373,793.36993,573.7729,-0.238525390625,-0.039306640625,0.99072265625,3.648681640625,0.16448974609375,0.157012939453125,1,1.0,1.0,1.0,1.0,50.00
2022-11-23 20:26:31.507,0.70886874,0.102972075,-0.016795743,0.6918004,0.4244509,0.0027726092,-0.006542734,0.37424704,0.59471714,0.25510406,0.16670471,0.62454295,0.17912848,-0.0731322,-0.10482594,0.2511147,-0.1353328,-0.4517529,-0.41461372,-0.10003614,819.9634,807.0696,806.6667,814.3223,745.0183,-0.238525390625,-0.039306640625,0.99072265625,3.648681640625,0.16448974609375,0.157012939453125,1,1.0,1.0,1.0,1.0,50.00
2022-11-23 20:26:31.507,0.70886874,0.102972075,-0.016795743,0.6918004,0.4244509,0.0027726092,-0.006542734,0.37424704,0.59471714,0.25510406,0.16670471,0.62454295,0.17912848,-0.0731322,-0.10482594,0.2511147,-0.1353328,-0.4517529,-0.41461372,-0.10003614,838.0952,809.89014,809.4872,813.5165,810.696,-0.238525390625,-0.039306640625,0.99072265625,3.648681640625,0.16448974609375,0.157012939453125,1,1.0,1.0,1.0,1.0,50.00
2022-11-23 20:26:31.551,0.70886874,0.102972075,-0.016795743,0.6918004,0.4244509,0.0027726092,-0.006542734,0.37424704,0.59471714,0.25510406,0.16670471,0.62454295,0.17912848,-0.0731322,-0.10482594,0.2511147,-0.1353328,-0.4517529,-0.41461372,-0.10003614,809.0842,808.2784,810.696,796.99634,657.5824,-0.2471923828125,-0.0367431640625,0.9915771484375,3.925323486328125,0.52337646484375,0.037384033203125,1,1.0,1.0,1.0,1.0,50.00
2022-11-23 20:26:31.551,0.70886874,0.102972075,-0.016795743,0.6918004,0.4244509,0.0027726092,-0.006542734,0.37424704,0.59471714,0.25510406,0.16670471,0.62454295,0.17912848,-0.0731322,-0.10482594,0.2511147,-0.1353328,-0.4517529,-0.41461372,-0.10003614,787.72894,803.0403,807.8755,800.2198,579.41394,-0.2471923828125,-0.0367431640625,0.9915771484375,3.925323486328125,0.52337646484375,0.037384033203125,1,1.0,1.0,1.0,1.0,50.00
2022-11-23 20:26:31.552,0.70886874,0.102972075,-0.016795743,0.6918004,0.4244509,0.0027726092,-0.006542734,0.37424704,0.59471714,0.25510406,0.16670471,0.62454295,0.17912848,-0.0731322,-0.10482594,0.2511147,-0.1353328,-0.4517529,-0.41461372,-0.10003614,811.0989,801.4286,806.6667,822.7839,794.17584,-0.2471923828125,-0.0367431640625,0.9915771484375,3.925323486328125,0.52337646484375,0.037384033203125,1,1.0,1.0,1.0,1.0,50.00
2022-11-23 20:26:31.552,0.70886874,0.102972075,-0.016795743,0.6918004,0.4244509,0.0027726092,-0.006542734,0.37424704,0.59471714,0.25510406,0.16670471,0.62454295,0.17912848,-0.0731322,-0.10482594,0.2511147,-0.1353328,-0.4517529,-0.41461372,-0.10003614,833.663,804.2491,805.8608,826.0073,948.9011,-0.2471923828125,-0.0367431640625,0.9915771484375,3.925323486328125,0.52337646484375,0.037384033203125,1,1.0,1.0,1.0,1.0,50.00
2022-11-23 20:26:31.552,0.70886874,0.102972075,-0.016795743,0.6918004,0.4244509,0.0027726092,-0.006542734,0.37424704,0.59471714,0.25510406,0.16670471,0.62454295,0.17912848,-0.0731322,-0.10482594,0.2511147,-0.1353328,-0.4517529,-0.41461372,-0.10003614,803.0403,803.44324,802.23444,805.4579,817.9487,-0.2471923828125,-0.0367431640625,0.9915771484375,3.925323486328125,0.52337646484375,0.037384033203125,1,1.0,1.0,1.0,1.0,50.00
2022-11-23 20:26:31.552,0.70886874,0.102972075,-0.016795743,0.6918004,0.4244509,0.0027726092,-0.006542734,0.37424704,0.59471714,0.25510406,0.16670471,0.62454295,0.17912848,-0.0731322,-0.10482594,0.2511147,-0.1353328,-0.4517529,-0.41461372,-0.10003614,779.67035,805.05493,804.2491,797.8022,828.4249,-0.2471923828125,-0.0367431640625,0.9915771484375,3.925323486328125,0.52337646484375,0.037384033203125,1,1.0,1.0,1.0,1.0,50.00
2022-11-23 20:26:31.553,0.70886874,0.102972075,-0.016795743,0.6918004,0.4244509,0.0027726092,-0.006542734,0.37424704,0.59471714,0.25510406,0.16670471,0.62454295,0.17912848,-0.0731322,-0.10482594,0.2511147,-0.1353328,-0.4517529,-0.41461372,-0.10003614,806.26373,802.6374,807.47253,807.0696,987.5824,-0.2471923828125,-0.0367431640625,0.9915771484375,3.925323486328125,0.52337646484375,0.037384033203125,1,1.0,1.0,1.0,1.0,50.00
2022-11-23 20:26:31.553,0.70886874,0.102972075,-0.016795743,0.6918004,0.4244509,0.0027726092,-0.006542734,0.37424704,0.59471714,0.25510406,0.16670471,0.62454295,0.17912848,-0.0731322,-0.10482594,0.2511147,-0.1353328,-0.4517529,-0.41461372,-0.10003614,827.619,801.02563,807.0696,819.9634,994.43225,-0.2471923828125,-0.0367431640625,0.9915771484375,3.925323486328125,0.52337646484375,0.037384033203125,1,1.0,1.0,1.0,1.0,50.00
2022-11-23 20:26:31.553,0.70886874,0.102972075,-0.016795743,0.6918004,0.4244509,0.0027726092,-0.006542734,0.37424704,0.59471714,0.25510406,0.16670471,0.62454295,0.17912848,-0.0731322,-0.10482594,0.2511147,-0.1353328,-0.4517529,-0.41461372,-0.10003614,807.8755,803.44324,806.26373,812.3077,817.9487,-0.2471923828125,-0.0367431640625,0.9915771484375,3.925323486328125,0.52337646484375,0.037384033203125,1,1.0,1.0,1.0,1.0,50.00
2022-11-23 20:26:31.553,0.70886874,0.102972075,-0.016795743,0.6918004,0.4244509,0.0027726092,-0.006542734,0.37424704,0.59471714,0.25510406,0.16670471,0.62454295,0.17912848,-0.0731322,-0.10482594,0.2511147,-0.1353328,-0.4517529,-0.41461372,-0.10003614,780.87915,807.0696,807.47253,798.60803,794.9817,-0.2471923828125,-0.0367431640625,0.9915771484375,3.925323486328125,0.52337646484375,0.037384033203125,1,1.0,1.0,1.0,1.0,50.00
2022-11-23 20:26:31.554,0.70886874,0.102972075,-0.016795743,0.6918004,0.4244509,0.0027726092,-0.006542734,0.37424704,0.59471714,0.25510406,0.16670471,0.62454295,0.17912848,-0.0731322,-0.10482594,0.2511147,-0.1353328,-0.4517529,-0.41461372,-0.10003614,788.93774,809.89014,806.6667,807.47253,984.35895,-0.2471923828125,-0.0367431640625,0.9915771484375,3.925323486328125,0.52337646484375,0.037384033203125,1,1.0,1.0,1.0,1.0,50.00
2022-11-23 20:26:31.554,0.70658207,0.08834099,-0.0278576,0.6696253,0.44766054,0.016986933,-0.01794924,0.36535522,0.5932901,0.25764632,0.21120645,0.6229634,0.170281,-0.06510042,-0.09275072,0.23006056,-0.12607639,-0.4530017,-0.4094394,-0.102533825,822.7839,811.0989,812.3077,830.4396,915.8608,-0.2471923828125,-0.0367431640625,0.9915771484375,3.925323486328125,0.52337646484375,0.037384033203125,1,1.0,1.0,1.0,1.0,50.00
2022-11-23 20:26:31.605,0.70658207,0.08834099,-0.0278576,0.6696253,0.44766054,0.016986933,-0.01794924,0.36535522,0.5932901,0.25764632,0.21120645,0.6229634,0.170281,-0.06510042,-0.09275072,0.23006056,-0.12607639,-0.4530017,-0.4094394,-0.102533825,826.0073,811.0989,812.3077,823.1868,840.10986,-0.24853515625,-0.0364990234375,0.99029541015625,4.508514404296875,-0.9869384765625,-0.500946044921875,1,1.0,1.0,1.0,1.0,50.00
2022-11-23 20:26:31.605,0.70658207,0.08834099,-0.0278576,0.6696253,0.44766054,0.016986933,-0.01794924,0.36535522,0.5932901,0.25764632,0.21120645,0.6229634,0.170281,-0.06510042,-0.09275072,0.23006056,-0.12607639,-0.4530017,-0.4094394,-0.102533825,791.3553,807.47253,808.68134,790.14655,689.81683,-0.24853515625,-0.0364990234375,0.99029541015625,4.508514404296875,-0.9869384765625,-0.500946044921875,1,1.0,1.0,1.0,1.0,50.00
2022-11-23 20:26:31.606,0.70658207,0.08834099,-0.0278576,0.6696253,0.44766054,0.016986933,-0.01794924,0.36535522,0.5932901,0.25764632,0.21120645,0.6229634,0.170281,-0.06510042,-0.09275072,0.23006056,-0.12607639,-0.4530017,-0.4094394,-0.102533825,780.87915,804.2491,808.68134,784.5055,618.0952,-0.24853515625,-0.0364990234375,0.99029541015625,4.508514404296875,-0.9869384765625,-0.500946044921875,1,1.0,1.0,1.0,1.0,50.00
2022-11-23 20:26:31.606,0.70658207,0.08834099,-0.0278576,0.6696253,0.44766054,0.016986933,-0.01794924,0.36535522,0.5932901,0.25764632,0.21120645,0.6229634,0.170281,-0.06510042,-0.09275072,0.23006056,-0.12607639,-0.4530017,-0.4094394,-0.102533825,815.9341,801.02563,807.47253,814.7253,728.9011,-0.24853515625,-0.0364990234375,0.99029541015625,4.508514404296875,-0.9869384765625,-0.500946044921875,1,1.0,1.0,1.0,1.0,50.00
2022-11-23 20:26:31.606,0.70658207,0.08834099,-0.0278576,0.6696253,0.44766054,0.016986933,-0.01794924,0.36535522,0.5932901,0.25764632,0.21120645,0.6229634,0.170281,-0.06510042,-0.09275072,0.23006056,-0.12607639,-0.4530017,-0.4094394,-0.102533825,829.6337,801.02563,805.4579,824.7985,827.2161,-0.24853515625,-0.0364990234375,0.99029541015625,4.508514404296875,-0.9869384765625,-0.500946044921875,1,1.0,1.0,1.0,1.0,50.00
2022-11-23 20:26:31.607,0.70658207,0.08834099,-0.0278576,0.6696253,0.44766054,0.016986933,-0.01794924,0.36535522,0.5932901,0.25764632,0.21120645,0.6229634,0.170281,-0.06510042,-0.09275072,0.23006056,-0.12607639,-0.4530017,-0.4094394,-0.102533825,794.17584,803.44324,803.0403,794.57874,790.9524,-0.24853515625,-0.0364990234375,0.99029541015625,4.508514404296875,-0.9869384765625,-0.500946044921875,1,1.0,1.0,1.0,1.0,50.00
2022-11-23 20:26:31.607,0.70658207,0.08834099,-0.0278576,0.6696253,0.44766054,0.016986933,-0.01794924,0.36535522,0.5932901,0.25764632,0.21120645,0.6229634,0.170281,-0.06510042,-0.09275072,0.23006056,-0.12607639,-0.4530017,-0.4094394,-0.102533825,777.25275,805.05493,807.8755,792.1612,695.4579,-0.24853515625,-0.0364990234375,0.99029541015625,4.508514404296875,-0.9869384765625,-0.500946044921875,1,1.0,1.0,1.0,1.0,50.00
2022-11-23 20:26:31.607,0.70658207,0.08834099,-0.0278576,0.6696253,0.44766054,0.016986933,-0.01794924,0.36535522,0.5932901,0.25764632,0.21120645,0.6229634,0.170281,-0.06510042,-0.09275072,0.23006056,-0.12607639,-0.4530017,-0.4094394,-0.102533825,805.8608,806.26373,811.50183,820.3663,742.1978,-0.24853515625,-0.0364990234375,0.99029541015625,4.508514404296875,-0.9869384765625,-0.500946044921875,1,1.0,1.0,1.0,1.0,50.00
2022-11-23 20:26:31.608,0.70658207,0.08834099,-0.0278576,0.6696253,0.44766054,0.016986933,-0.01794924,0.36535522,0.5932901,0.25764632,0.21120645,0.6229634,0.170281,-0.06510042,-0.09275072,0.23006056,-0.12607639,-0.4530017,-0.4094394,-0.102533825,829.2308,805.4579,806.26373,825.2015,828.8278,-0.24853515625,-0.0364990234375,0.99029541015625,4.508514404296875,-0.9869384765625,-0.500946044921875,1,1.0,1.0,1.0,1.0,50.00
2022-11-23 20:26:31.608,0.70658207,0.08834099,-0.0278576,0.6696253,0.44766054,0.016986933,-0.01794924,0.36535522,0.5932901,0.25764632,0.21120645,0.6229634,0.170281,-0.06510042,-0.09275072,0.23006056,-0.12607639,-0.4530017,-0.4094394,-0.102533825,800.6227,804.65204,799.81683,803.8461,946.4835,-0.24853515625,-0.0364990234375,0.99029541015625,4.508514404296875,-0.9869384765625,-0.500946044921875,1,1.0,1.0,1.0,1.0,50.00
2022-11-23 20:26:31.608,0.70658207,0.08834099,-0.0278576,0.6696253,0.44766054,0.016986933,-0.01794924,0.36535522,0.5932901,0.25764632,0.21120645,0.6229634,0.170281,-0.06510042,-0.09275072,0.23006056,-0.12607639,-0.4530017,-0.4094394,-0.102533825,771.6117,801.4286,796.5934,784.90845,811.0989,-0.24853515625,-0.0364990234375,0.99029541015625,4.508514404296875,-0.9869384765625,-0.500946044921875,1,1.0,1.0,1.0,1.0,50.00
2022-11-23 20:26:31.609,0.70658207,0.08834099,-0.0278576,0.6696253,0.44766054,0.016986933,-0.01794924,0.36535522,0.5932901,0.25764632,0.21120645,0.6229634,0.170281,-0.06510042,-0.09275072,0.23006056,-0.12607639,-0.4530017,-0.4094394,-0.102533825,797.8022,801.8315,803.8461,802.23444,660.0,-0.24853515625,-0.0364990234375,0.99029541015625,4.508514404296875,-0.9869384765625,-0.500946044921875,1,1.0,1.0,1.0,1.0,50.00
2022-11-23 20:26:31.639,0.70658207,0.08834099,-0.0278576,0.6696253,0.44766054,0.016986933,-0.01794924,0.36535522,0.5932901,0.25764632,0.21120645,0.6229634,0.170281,-0.06510042,-0.09275072,0.23006056,-0.12607639,-0.4530017,-0.4094394,-0.102533825,825.6044,801.8315,806.6667,824.3956,865.09155,-0.23883056640625,-0.03204345703125,0.98016357421875,4.71038818359375,-4.18701171875,0.456085205078125,1,1.0,1.0,1.0,1.0,50.00
2022-11-23 20:26:31.640,0.70658207,0.08834099,-0.0278576,0.6696253,0.44766054,0.016986933,-0.01794924,0.36535522,0.5932901,0.25764632,0.21120645,0.6229634,0.170281,-0.06510042,-0.09275072,0.23006056,-0.12607639,-0.4530017,-0.4094394,-0.102533825,809.89014,798.60803,805.4579,813.91943,947.28937,-0.23883056640625,-0.03204345703125,0.98016357421875,4.71038818359375,-4.18701171875,0.456085205078125,1,1.0,1.0,1.0,1.0,50.00
2022-11-23 20:26:31.640,0.70658207,0.08834099,-0.0278576,0.6696253,0.44766054,0.016986933,-0.01794924,0.36535522,0.5932901,0.25764632,0.21120645,0.6229634,0.170281,-0.06510042,-0.09275072,0.23006056,-0.12607639,-0.4530017,-0.4094394,-0.102533825,774.83514,799.41394,801.4286,789.7436,729.304,-0.23883056640625,-0.03204345703125,0.98016357421875,4.71038818359375,-4.18701171875,0.456085205078125,1,1.0,1.0,1.0,1.0,50.00
2022-11-23 20:26:31.641,0.70658207,0.08834099,-0.0278576,0.6696253,0.44766054,0.016986933,-0.01794924,0.36535522,0.5932901,0.25764632,0.21120645,0.6229634,0.170281,-0.06510042,-0.09275072,0.23006056,-0.12607639,-0.4530017,-0.4094394,-0.102533825,779.2674,802.23444,804.2491,795.38464,649.12085,-0.23883056640625,-0.03204345703125,0.98016357421875,4.71038818359375,-4.18701171875,0.456085205078125,1,1.0,1.0,1.0,1.0,50.00
2022-11-23 20:26:31.641,0.70658207,0.08834099,-0.0278576,0.6696253,0.44766054,0.016986933,-0.01794924,0.36535522,0.5932901,0.25764632,0.21120645,0.6229634,0.170281,-0.06510042,-0.09275072,0.23006056,-0.12607639,-0.4530017,-0.4094394,-0.102533825,817.5458,803.44324,809.89014,823.9927,837.28937,-0.23883056640625,-0.03204345703125,0.98016357421875,4.71038818359375,-4.18701171875,0.456085205078125,1,1.0,1.0,1.0,1.0,50.00
2022-11-23 20:26:31.642,0.70658207,0.08834099,-0.0278576,0.6696253,0.44766054,0.016986933,-0.01794924,0.36535522,0.5932901,0.25764632,0.21120645,0.6229634,0.170281,-0.06510042,-0.09275072,0.23006056,-0.12607639,-0.4530017,-0.4094394,-0.102533825,817.9487,801.4286,807.8755,821.978,973.8828,-0.23883056640625,-0.03204345703125,0.98016357421875,4.71038818359375,-4.18701171875,0.456085205078125,1,1.0,1.0,1.0,1.0,50.00
2022-11-23 20:26:31.642,0.70658207,0.08834099,-0.0278576,0.6696253,0.44766054,0.016986933,-0.01794924,0.36535522,0.5932901,0.25764632,0.21120645,0.6229634,0.170281,-0.06510042,-0.09275072,0.23006056,-0.12607639,-0.4530017,-0.4094394,-0.102533825,780.4762,807.47253,807.47253,795.78754,786.9231,-0.23883056640625,-0.03204345703125,0.98016357421875,4.71038818359375,-4.18701171875,0.456085205078125,1,1.0,1.0,1.0,1.0,50.00
2022-11-23 20:26:31.642,0.70658207,0.08834099,-0.0278576,0.6696253,0.44766054,0.016986933,-0.01794924,0.36535522,0.5932901,0.25764632,0.21120645,0.6229634,0.170281,-0.06510042,-0.09275072,0.23006056,-0.12607639,-0.4530017,-0.4094394,-0.102533825,770.0,807.0696,805.05493,784.90845,568.93774,-0.23883056640625,-0.03204345703125,0.98016357421875,4.71038818359375,-4.18701171875,0.456085205078125,1,1.0,1.0,1.0,1.0,50.00
2022-11-23 20:26:31.643,0.70658207,0.08834099,-0.0278576,0.6696253,0.44766054,0.016986933,-0.01794924,0.36535522,0.5932901,0.25764632,0.21120645,0.6229634,0.170281,-0.06510042,-0.09275072,0.23006056,-0.12607639,-0.4530017,-0.4094394,-0.102533825,805.4579,801.02563,804.2491,807.0696,811.50183,-0.23883056640625,-0.03204345703125,0.98016357421875,4.71038818359375,-4.18701171875,0.456085205078125,1,1.0,1.0,1.0,1.0,50.00
2022-11-23 20:26:31.643,0.70658207,0.08834099,-0.0278576,0.6696253,0.44766054,0.016986933,-0.01794924,0.36535522,0.5932901,0.25764632,0.21120645,0.6229634,0.170281,-0.06510042,-0.09275072,0.23006056,-0.12607639,-0.4530017,-0.4094394,-0.102533825,821.978,804.2491,805.4579,823.5897,1109.6703,-0.23883056640625,-0.03204345703125,0.98016357421875,4.71038818359375,-4.18701171875,0.456085205078125,1,1.0,1.0,1.0,1.0,50.00
2022-11-23 20:26:31.644,0.70658207,0.08834099,-0.0278576,0.6696253,0.44766054,0.016986933,-0.01794924,0.36535522,0.5932901,0.25764632,0.21120645,0.6229634,0.170281,-0.06510042,-0.09275072,0.23006056,-0.12607639,-0.4530017,-0.4094394,-0.102533825,786.1172,804.65204,804.2491,797.3993,857.4359,-0.23883056640625,-0.03204345703125,0.98016357421875,4.71038818359375,-4.18701171875,0.456085205078125,1,1.0,1.0,1.0,1.0,50.00
2022-11-23 20:26:31.644,0.70658207,0.08834099,-0.0278576,0.6696253,0.44766054,0.016986933,-0.01794924,0.36535522,0.5932901,0.25764632,0.21120645,0.6229634,0.170281,-0.06510042,-0.09275072,0.23006056,-0.12607639,-0.4530017,-0.4094394,-0.102533825,764.35895,802.23444,799.81683,777.25275,644.68866,-0.23883056640625,-0.03204345703125,0.98016357421875,4.71038818359375,-4.18701171875,0.456085205078125,1,1.0,1.0,1.0,1.0,50.00
2022-11-23 20:26:31.692,0.70658207,0.08834099,-0.0278576,0.6696253,0.44766054,0.016986933,-0.01794924,0.36535522,0.5932901,0.25764632,0.21120645,0.6229634,0.170281,-0.06510042,-0.09275072,0.23006056,-0.12607639,-0.4530017,-0.4094394,-0.102533825,789.34064,800.6227,798.60803,794.17584,796.5934,-0.24786376953125,-0.0313720703125,1.0029296875,4.3963623046875,-2.863616943359375,1.016845703125,1,1.0,1.0,1.0,1.0,50.00
2022-11-23 20:26:31.693,0.69978064,0.0695885,-0.050414678,0.6445074,0.47091767,0.022694431,-0.030214278,0.34983373,0.592212,0.25940934,0.21669982,0.6200942,0.16750291,-0.061815314,-0.077310234,0.21031143,-0.11278254,-0.457439,-0.406543,-0.106402345,820.7692,800.6227,801.8315,816.7399,963.8095,-0.24786376953125,-0.0313720703125,1.0029296875,4.3963623046875,-2.863616943359375,1.016845703125,1,1.0,1.0,1.0,1.0,50.00
2022-11-23 20:26:31.694,0.69978064,0.0695885,-0.050414678,0.6445074,0.47091767,0.022694431,-0.030214278,0.34983373,0.592212,0.25940934,0.21669982,0.6200942,0.16750291,-0.061815314,-0.077310234,0.21031143,-0.11278254,-0.457439,-0.406543,-0.106402345,794.9817,798.60803,796.5934,790.9524,812.71063,-0.24786376953125,-0.0313720703125,1.0029296875,4.3963623046875,-2.863616943359375,1.016845703125,1,1.0,1.0,1.0,1.0,50.00
2022-11-23 20:26:31.694,0.69978064,0.0695885,-0.050414678,0.6445074,0.47091767,0.022694431,-0.030214278,0.34983373,0.592212,0.25940934,0.21669982,0.6200942,0.16750291,-0.061815314,-0.077310234,0.21031143,-0.11278254,-0.457439,-0.406543,-0.106402345,751.4652,798.20514,795.38464,760.32965,616.4835,-0.24786376953125,-0.0313720703125,1.0029296875,4.3963623046875,-2.863616943359375,1.016845703125,1,1.0,1.0,1.0,1.0,50.00
2022-11-23 20:26:31.695,0.69978064,0.0695885,-0.050414678,0.6445074,0.47091767,0.022694431,-0.030214278,0.34983373,0.592212,0.25940934,0.21669982,0.6200942,0.16750291,-0.061815314,-0.077310234,0.21031143,-0.11278254,-0.457439,-0.406543,-0.106402345,773.22345,801.4286,800.6227,777.6557,730.10986,-0.24786376953125,-0.0313720703125,1.0029296875,4.3963623046875,-2.863616943359375,1.016845703125,1,1.0,1.0,1.0,1.0,50.00
2022-11-23 20:26:31.695,0.69978064,0.0695885,-0.050414678,0.6445074,0.47091767,0.022694431,-0.030214278,0.34983373,0.592212,0.25940934,0.21669982,0.6200942,0.16750291,-0.061815314,-0.077310234,0.21031143,-0.11278254,-0.457439,-0.406543,-0.106402345,805.4579,801.8315,800.2198,795.78754,958.1685,-0.24786376953125,-0.0313720703125,1.0029296875,4.3963623046875,-2.863616943359375,1.016845703125,1,1.0,1.0,1.0,1.0,50.00
2022-11-23 20:26:31.695,0.69978064,0.0695885,-0.050414678,0.6445074,0.47091767,0.022694431,-0.030214278,0.34983373,0.592212,0.25940934,0.21669982,0.6200942,0.16750291,-0.061815314,-0.077310234,0.21031143,-0.11278254,-0.457439,-0.406543,-0.106402345,796.99634,802.23444,797.8022,794.57874,852.1978,-0.24786376953125,-0.0313720703125,1.0029296875,4.3963623046875,-2.863616943359375,1.016845703125,1,1.0,1.0,1.0,1.0,50.00
2022-11-23 20:26:31.696,0.69978064,0.0695885,-0.050414678,0.6445074,0.47091767,0.022694431,-0.030214278,0.34983373,0.592212,0.25940934,0.21669982,0.6200942,0.16750291,-0.061815314,-0.077310234,0.21031143,-0.11278254,-0.457439,-0.406543,-0.106402345,768.7912,805.4579,796.5934,778.46155,580.6227,-0.24786376953125,-0.0313720703125,1.0029296875,4.3963623046875,-2.863616943359375,1.016845703125,1,1.0,1.0,1.0,1.0,50.00
2022-11-23 20:26:31.696,0.69978064,0.0695885,-0.050414678,0.6445074,0.47091767,0.022694431,-0.030214278,0.34983373,0.592212,0.25940934,0.21669982,0.6200942,0.16750291,-0.061815314,-0.077310234,0.21031143,-0.11278254,-0.457439,-0.406543,-0.106402345,765.56775,803.0403,795.78754,779.67035,853.8095,-0.24786376953125,-0.0313720703125,1.0029296875,4.3963623046875,-2.863616943359375,1.016845703125,1,1.0,1.0,1.0,1.0,50.00
2022-11-23 20:26:31.696,0.69978064,0.0695885,-0.050414678,0.6445074,0.47091767,0.022694431,-0.030214278,0.34983373,0.592212,0.25940934,0.21669982,0.6200942,0.16750291,-0.061815314,-0.077310234,0.21031143,-0.11278254,-0.457439,-0.406543,-0.106402345,801.8315,799.41394,797.3993,805.05493,1122.1611,-0.24786376953125,-0.0313720703125,1.0029296875,4.3963623046875,-2.863616943359375,1.016845703125,1,1.0,1.0,1.0,1.0,50.00
2022-11-23 20:26:31.696,0.69978064,0.0695885,-0.050414678,0.6445074,0.47091767,0.022694431,-0.030214278,0.34983373,0.592212,0.25940934,0.21669982,0.6200942,0.16750291,-0.061815314,-0.077310234,0.21031143,-0.11278254,-0.457439,-0.406543,-0.106402345,810.696,801.4286,797.8022,802.6374,971.06226,-0.24786376953125,-0.0313720703125,1.0029296875,4.3963623046875,-2.863616943359375,1.016845703125,1,1.0,1.0,1.0,1.0,50.00
2022-11-23 20:26:31.697,0.69978064,0.0695885,-0.050414678,0.6445074,0.47091767,0.022694431,-0.030214278,0.34983373,0.592212,0.25940934,0.21669982,0.6200942,0.16750291,-0.061815314,-0.077310234,0.21031143,-0.11278254,-0.457439,-0.406543,-0.106402345,778.46155,800.6227,796.99634,784.10254,796.5934,-0.24786376953125,-0.0313720703125,1.0029296875,4.3963623046875,-2.863616943359375,1.016845703125,1,1.0,1.0,1.0,1.0,50.00
2022-11-23 20:26:31.746,0.69978064,0.0695885,-0.050414678,0.6445074,0.47091767,0.022694431,-0.030214278,0.34983373,0.592212,0.25940934,0.21669982,0.6200942,0.16750291,-0.061815314,-0.077310234,0.21031143,-0.11278254,-0.457439,-0.406543,-0.106402345,763.95605,801.4286,799.011,778.46155,651.9414,-0.24786376953125,-0.0313720703125,1.0029296875,4.3963623046875,-2.863616943359375,1.016845703125,1,1.0,1.0,1.0,1.0,50.00
2022-11-23 20:26:31.747,0.69978064,0.0695885,-0.050414678,0.6445074,0.47091767,0.022694431,-0.030214278,0.34983373,0.592212,0.25940934,0.21669982,0.6200942,0.16750291,-0.061815314,-0.077310234,0.21031143,-0.11278254,-0.457439,-0.406543,-0.106402345,794.17584,807.47253,801.8315,796.99634,769.19415,-0.24786376953125,-0.0313720703125,1.0029296875,4.3963623046875,-2.863616943359375,1.016845703125,1,1.0,1.0,1.0,1.0,50.00
2022-11-23 20:26:31.747,0.69978064,0.0695885,-0.050414678,0.6445074,0.47091767,0.022694431,-0.030214278,0.34983373,0.592212,0.25940934,0.21669982,0.6200942,0.16750291,-0.061815314,-0.077310234,0.21031143,-0.11278254,-0.457439,-0.406543,-0.106402345,815.12823,806.6667,800.6227,813.1135,853.8095,-0.24786376953125,-0.0313720703125,1.0029296875,4.3963623046875,-2.863616943359375,1.016845703125,1,1.0,1.0,1.0,1.0,50.00
2022-11-23 20:26:31.748,0.69978064,0.0695885,-0.050414678,0.6445074,0.47091767,0.022694431,-0.030214278,0.34983373,0.592212,0.25940934,0.21669982,0.6200942,0.16750291,-0.061815314,-0.077310234,0.21031143,-0.11278254,-0.457439,-0.406543,-0.106402345,785.31134,806.6667,797.8022,794.17584,850.58606,-0.24786376953125,-0.0313720703125,1.0029296875,4.3963623046875,-2.863616943359375,1.016845703125,1,1.0,1.0,1.0,1.0,50.00
2022-11-23 20:26:31.748,0.69978064,0.0695885,-0.050414678,0.6445074,0.47091767,0.022694431,-0.030214278,0.34983373,0.592212,0.25940934,0.21669982,0.6200942,0.16750291,-0.061815314,-0.077310234,0.21031143,-0.11278254,-0.457439,-0.406543,-0.106402345,766.77655,807.47253,802.23444,775.2381,798.20514,-0.24786376953125,-0.0313720703125,1.0029296875,4.3963623046875,-2.863616943359375,1.016845703125,1,1.0,1.0,1.0,1.0,50.00
2022-11-23 20:26:31.748,0.69978064,0.0695885,-0.050414678,0.6445074,0.47091767,0.022694431,-0.030214278,0.34983373,0.592212,0.25940934,0.21669982,0.6200942,0.16750291,-0.061815314,-0.077310234,0.21031143,-0.11278254,-0.457439,-0.406543,-0.106402345,797.3993,802.23444,805.05493,802.23444,733.73627,-0.24786376953125,-0.0313720703125,1.0029296875,4.3963623046875,-2.863616943359375,1.016845703125,1,1.0,1.0,1.0,1.0,50.00
2022-11-23 20:26:31.749,0.69978064,0.0695885,-0.050414678,0.6445074,0.47091767,0.022694431,-0.030214278,0.34983373,0.592212,0.25940934,0.21669982,0.6200942,0.16750291,-0.061815314,-0.077310234,0.21031143,-0.11278254,-0.457439,-0.406543,-0.106402345,822.381,796.1905,799.41394,817.5458,850.18317,-0.24786376953125,-0.0313720703125,1.0029296875,4.3963623046875,-2.863616943359375,1.016845703125,1,1.0,1.0,1.0,1.0,50.00
2022-11-23 20:26:31.749,0.69978064,0.0695885,-0.050414678,0.6445074,0.47091767,0.022694431,-0.030214278,0.34983373,0.592212,0.25940934,0.21669982,0.6200942,0.16750291,-0.061815314,-0.077310234,0.21031143,-0.11278254,-0.457439,-0.406543,-0.106402345,796.5934,793.36993,796.1905,793.7729,897.326,-0.24786376953125,-0.0313720703125,1.0029296875,4.3963623046875,-2.863616943359375,1.016845703125,1,1.0,1.0,1.0,1.0,50.00
2022-11-23 20:26:31.749,0.69978064,0.0695885,-0.050414678,0.6445074,0.47091767,0.022694431,-0.030214278,0.34983373,0.592212,0.25940934,0.21669982,0.6200942,0.16750291,-0.061815314,-0.077310234,0.21031143,-0.11278254,-0.457439,-0.406543,-0.106402345,766.3736,794.9817,799.81683,782.49084,880.40295,-0.24786376953125,-0.0313720703125,1.0029296875,4.3963623046875,-2.863616943359375,1.016845703125,1,1.0,1.0,1.0,1.0,50.00
2022-11-23 20:26:31.750,0.69978064,0.0695885,-0.050414678,0.6445074,0.47091767,0.022694431,-0.030214278,0.34983373,0.592212,0.25940934,0.21669982,0.6200942,0.16750291,-0.061815314,-0.077310234,0.21031143,-0.11278254,-0.457439,-0.406543,-0.106402345,785.31134,796.5934,807.0696,797.8022,744.61536,-0.24786376953125,-0.0313720703125,1.0029296875,4.3963623046875,-2.863616943359375,1.016845703125,1,1.0,1.0,1.0,1.0,50.00
2022-11-23 20:26:31.750,0.69978064,0.0695885,-0.050414678,0.6445074,0.47091767,0.022694431,-0.030214278,0.34983373,0.592212,0.25940934,0.21669982,0.6200942,0.16750291,-0.061815314,-0.077310234,0.21031143,-0.11278254,-0.457439,-0.406543,-0.106402345,814.7253,794.9817,802.23444,814.7253,767.98535,-0.24786376953125,-0.0313720703125,1.0029296875,4.3963623046875,-2.863616943359375,1.016845703125,1,1.0,1.0,1.0,1.0,50.00
2022-11-23 20:26:31.750,0.69978064,0.0695885,-0.050414678,0.6445074,0.47091767,0.022694431,-0.030214278,0.34983373,0.592212,0.25940934,0.21669982,0.6200942,0.16750291,-0.061815314,-0.077310234,0.21031143,-0.11278254,-0.457439,-0.406543,-0.106402345,816.337,792.96704,796.1905,806.26373,867.1062,-0.24786376953125,-0.0313720703125,1.0029296875,4.3963623046875,-2.863616943359375,1.016845703125,1,1.0,1.0,1.0,1.0,50.00
2022-11-23 20:26:31.776,0.69978064,0.0695885,-0.050414678,0.6445074,0.47091767,0.022694431,-0.030214278,0.34983373,0.592212,0.25940934,0.21669982,0.6200942,0.16750291,-0.061815314,-0.077310234,0.21031143,-0.11278254,-0.457439,-0.406543,-0.106402345,782.49084,794.17584,800.2198,779.2674,697.8755,-0.216552734375,-0.031494140625,0.989013671875,2.848663330078125,-4.5758056640625,-0.8673095703125,1,1.0,1.0,1.0,1.0,50.00
2022-11-23 20:26:31.777,0.69978064,0.0695885,-0.050414678,0.6445074,0.47091767,0.022694431,-0.030214278,0.34983373,0.592212,0.25940934,0.21669982,0.6200942,0.16750291,-0.061815314,-0.077310234,0.21031143,-0.11278254,-0.457439,-0.406543,-0.106402345,776.04395,796.5934,797.8022,789.34064,569.34064,-0.216552734375,-0.031494140625,0.989013671875,2.848663330078125,-4.5758056640625,-0.8673095703125,1,1.0,1.0,1.0,1.0,50.00
2022-11-23 20:26:31.777,0.69978064,0.0695885,-0.050414678,0.6445074,0.47091767,0.022694431,-0.030214278,0.34983373,0.592212,0.25940934,0.21669982,0.6200942,0.16750291,-0.061815314,-0.077310234,0.21031143,-0.11278254,-0.457439,-0.406543,-0.106402345,821.978,797.3993,797.3993,829.6337,730.10986,-0.216552734375,-0.031494140625,0.989013671875,2.848663330078125,-4.5758056640625,-0.8673095703125,1,1.0,1.0,1.0,1.0,50.00
2022-11-23 20:26:31.777,0.6946389,0.047996745,-0.09306786,0.6109518,0.49031252,0.021673292,-0.038968604,0.3415877,0.592212,0.25940934,0.21669982,0.6351331,0.16360645,-0.06079633,-0.06243644,0.18416178,-0.09531217,-0.46047994,-0.4021122,-0.11179006,822.7839,800.6227,803.0403,819.9634,869.5238,-0.216552734375,-0.031494140625,0.989013671875,2.848663330078125,-4.5758056640625,-0.8673095703125,1,1.0,1.0,1.0,1.0,50.00
2022-11-23 20:26:31.779,0.6946389,0.047996745,-0.09306786,0.6109518,0.49031252,0.021673292,-0.038968604,0.3415877,0.592212,0.25940934,0.21669982,0.6351331,0.16360645,-0.06079633,-0.06243644,0.18416178,-0.09531217,-0.46047994,-0.4021122,-0.11179006,767.98535,797.8022,800.6227,773.22345,782.49084,-0.216552734375,-0.031494140625,0.989013671875,2.848663330078125,-4.5758056640625,-0.8673095703125,1,1.0,1.0,1.0,1.0,50.00
2022-11-23 20:26:31.779,0.6946389,0.047996745,-0.09306786,0.6109518,0.49031252,0.021673292,-0.038968604,0.3415877,0.592212,0.25940934,0.21669982,0.6351331,0.16360645,-0.06079633,-0.06243644,0.18416178,-0.09531217,-0.46047994,-0.4021122,-0.11179006,742.6007,797.8022,801.4286,756.7033,676.1172,-0.216552734375,-0.031494140625,0.989013671875,2.848663330078125,-4.5758056640625,-0.8673095703125,1,1.0,1.0,1.0,1.0,50.00
2022-11-23 20:26:31.779,0.6946389,0.047996745,-0.09306786,0.6109518,0.49031252,0.021673292,-0.038968604,0.3415877,0.592212,0.25940934,0.21669982,0.6351331,0.16360645,-0.06079633,-0.06243644,0.18416178,-0.09531217,-0.46047994,-0.4021122,-0.11179006,759.92676,800.2198,808.68134,759.92676,737.3626,-0.216552734375,-0.031494140625,0.989013671875,2.848663330078125,-4.5758056640625,-0.8673095703125,1,1.0,1.0,1.0,1.0,50.00
2022-11-23 20:26:31.780,0.6946389,0.047996745,-0.09306786,0.6109518,0.49031252,0.021673292,-0.038968604,0.3415877,0.592212,0.25940934,0.21669982,0.6351331,0.16360645,-0.06079633,-0.06243644,0.18416178,-0.09531217,-0.46047994,-0.4021122,-0.11179006,774.83514,800.2198,810.696,770.80585,1100.0,-0.216552734375,-0.031494140625,0.989013671875,2.848663330078125,-4.5758056640625,-0.8673095703125,1,1.0,1.0,1.0,1.0,50.00
2022-11-23 20:26:31.780,0.6946389,0.047996745,-0.09306786,0.6109518,0.49031252,0.021673292,-0.038968604,0.3415877,0.592212,0.25940934,0.21669982,0.6351331,0.16360645,-0.06079633,-0.06243644,0.18416178,-0.09531217,-0.46047994,-0.4021122,-0.11179006,736.9597,802.6374,809.4872,748.6447,1068.5714,-0.216552734375,-0.031494140625,0.989013671875,2.848663330078125,-4.5758056640625,-0.8673095703125,1,1.0,1.0,1.0,1.0,50.00
2022-11-23 20:26:31.780,0.6946389,0.047996745,-0.09306786,0.6109518,0.49031252,0.021673292,-0.038968604,0.3415877,0.592212,0.25940934,0.21669982,0.6351331,0.16360645,-0.06079633,-0.06243644,0.18416178,-0.09531217,-0.46047994,-0.4021122,-0.11179006,696.6667,802.23444,809.4872,711.5751,587.47253,-0.216552734375,-0.031494140625,0.989013671875,2.848663330078125,-4.5758056640625,-0.8673095703125,1,1.0,1.0,1.0,1.0,50.00
2022-11-23 20:26:31.780,0.6946389,0.047996745,-0.09306786,0.6109518,0.49031252,0.021673292,-0.038968604,0.3415877,0.592212,0.25940934,0.21669982,0.6351331,0.16360645,-0.06079633,-0.06243644,0.18416178,-0.09531217,-0.46047994,-0.4021122,-0.11179006,712.7839,798.20514,806.26373,719.6337,619.304,-0.216552734375,-0.031494140625,0.989013671875,2.848663330078125,-4.5758056640625,-0.8673095703125,1,1.0,1.0,1.0,1.0,50.00
2022-11-23 20:26:31.780,0.6946389,0.047996745,-0.09306786,0.6109518,0.49031252,0.021673292,-0.038968604,0.3415877,0.592212,0.25940934,0.21669982,0.6351331,0.16360645,-0.06079633,-0.06243644,0.18416178,-0.09531217,-0.46047994,-0.4021122,-0.11179006,736.55676,801.8315,804.65204,732.52747,818.7546,-0.216552734375,-0.031494140625,0.989013671875,2.848663330078125,-4.5758056640625,-0.8673095703125,1,1.0,1.0,1.0,1.0,50.00
2022-11-23 20:26:31.829,0.6946389,0.047996745,-0.09306786,0.6109518,0.49031252,0.021673292,-0.038968604,0.3415877,0.592212,0.25940934,0.21669982,0.6351331,0.16360645,-0.06079633,-0.06243644,0.18416178,-0.09531217,-0.46047994,-0.4021122,-0.11179006,709.5604,808.2784,808.68134,714.7985,805.8608,-0.21185302734375,-0.0367431640625,1.0032958984375,3.297271728515625,-2.76641845703125,0.456085205078125,1,1.0,1.0,1.0,1.0,50.00
2022-11-23 20:26:31.830,0.6946389,0.047996745,-0.09306786,0.6109518,0.49031252,0.021673292,-0.038968604,0.3415877,0.592212,0.25940934,0.21669982,0.6351331,0.16360645,-0.06079633,-0.06243644,0.18416178,-0.09531217,-0.46047994,-0.4021122,-0.11179006,676.52014,804.2491,809.0842,690.2198,738.97437,-0.21185302734375,-0.0367431640625,1.0032958984375,3.297271728515625,-2.76641845703125,0.456085205078125,1,1.0,1.0,1.0,1.0,50.00
2022-11-23 20:26:31.830,0.6946389,0.047996745,-0.09306786,0.6109518,0.49031252,0.021673292,-0.038968604,0.3415877,0.592212,0.25940934,0.21669982,0.6351331,0.16360645,-0.06079633,-0.06243644,0.18416178,-0.09531217,-0.46047994,-0.4021122,-0.11179006,687.8022,801.8315,810.293,693.8461,796.99634,-0.21185302734375,-0.0367431640625,1.0032958984375,3.297271728515625,-2.76641845703125,0.456085205078125,1,1.0,1.0,1.0,1.0,50.00
2022-11-23 20:26:31.830,0.6946389,0.047996745,-0.09306786,0.6109518,0.49031252,0.021673292,-0.038968604,0.3415877,0.592212,0.25940934,0.21669982,0.6351331,0.16360645,-0.06079633,-0.06243644,0.18416178,-0.09531217,-0.46047994,-0.4021122,-0.11179006,707.9487,803.0403,809.4872,711.5751,866.30035,-0.21185302734375,-0.0367431640625,1.0032958984375,3.297271728515625,-2.76641845703125,0.456085205078125,1,1.0,1.0,1.0,1.0,50.00
2022-11-23 20:26:31.830,0.6946389,0.047996745,-0.09306786,0.6109518,0.49031252,0.021673292,-0.038968604,0.3415877,0.592212,0.25940934,0.21669982,0.6351331,0.16360645,-0.06079633,-0.06243644,0.18416178,-0.09531217,-0.46047994,-0.4021122,-0.11179006,710.3663,801.4286,810.696,705.12823,784.10254,-0.21185302734375,-0.0367431640625,1.0032958984375,3.297271728515625,-2.76641845703125,0.456085205078125,1,1.0,1.0,1.0,1.0,50.00
2022-11-23 20:26:31.831,0.6946389,0.047996745,-0.09306786,0.6109518,0.49031252,0.021673292,-0.038968604,0.3415877,0.592212,0.25940934,0.21669982,0.6351331,0.16360645,-0.06079633,-0.06243644,0.18416178,-0.09531217,-0.46047994,-0.4021122,-0.11179006,685.38464,803.8461,814.7253,685.78754,669.67035,-0.21185302734375,-0.0367431640625,1.0032958984375,3.297271728515625,-2.76641845703125,0.456085205078125,1,1.0,1.0,1.0,1.0,50.00
2022-11-23 20:26:31.831,0.6946389,0.047996745,-0.09306786,0.6109518,0.49031252,0.021673292,-0.038968604,0.3415877,0.592212,0.25940934,0.21669982,0.6351331,0.16360645,-0.06079633,-0.06243644,0.18416178,-0.09531217,-0.46047994,-0.4021122,-0.11179006,673.2967,807.47253,810.696,684.17584,709.5604,-0.21185302734375,-0.0367431640625,1.0032958984375,3.297271728515625,-2.76641845703125,0.456085205078125,1,1.0,1.0,1.0,1.0,50.00
2022-11-23 20:26:31.831,0.6946389,0.047996745,-0.09306786,0.6109518,0.49031252,0.021673292,-0.038968604,0.3415877,0.592212,0.25940934,0.21669982,0.6351331,0.16360645,-0.06079633,-0.06243644,0.18416178,-0.09531217,-0.46047994,-0.4021122,-0.11179006,706.7399,806.26373,812.71063,709.15753,955.7509,-0.21185302734375,-0.0367431640625,1.0032958984375,3.297271728515625,-2.76641845703125,0.456085205078125,1,1.0,1.0,1.0,1.0,50.00
2022-11-23 20:26:31.831,0.6946389,0.047996745,-0.09306786,0.6109518,0.49031252,0.021673292,-0.038968604,0.3415877,0.592212,0.25940934,0.21669982,0.6351331,0.16360645,-0.06079633,-0.06243644,0.18416178,-0.09531217,-0.46047994,-0.4021122,-0.11179006,721.2454,805.4579,816.337,708.3516,909.81683,-0.21185302734375,-0.0367431640625,1.0032958984375,3.297271728515625,-2.76641845703125,0.456085205078125,1,1.0,1.0,1.0,1.0,50.00
2022-11-23 20:26:31.832,0.6946389,0.047996745,-0.09306786,0.6109518,0.49031252,0.021673292,-0.038968604,0.3415877,0.592212,0.25940934,0.21669982,0.6351331,0.16360645,-0.06079633,-0.06243644,0.18416178,-0.09531217,-0.46047994,-0.4021122,-0.11179006,689.41394,803.44324,817.9487,682.96704,687.8022,-0.21185302734375,-0.0367431640625,1.0032958984375,3.297271728515625,-2.76641845703125,0.456085205078125,1,1.0,1.0,1.0,1.0,50.00
2022-11-23 20:26:31.832,0.6946389,0.047996745,-0.09306786,0.6109518,0.49031252,0.021673292,-0.038968604,0.3415877,0.592212,0.25940934,0.21669982,0.6351331,0.16360645,-0.06079633,-0.06243644,0.18416178,-0.09531217,-0.46047994,-0.4021122,-0.11179006,677.72894,801.02563,824.3956,690.6227,705.9341,-0.21185302734375,-0.0367431640625,1.0032958984375,3.297271728515625,-2.76641845703125,0.456085205078125,1,1.0,1.0,1.0,1.0,50.00
2022-11-23 20:26:31.832,0.6946389,0.047996745,-0.09306786,0.6109518,0.49031252,0.021673292,-0.038968604,0.3415877,0.592212,0.25940934,0.21669982,0.6351331,0.16360645,-0.06079633,-0.06243644,0.18416178,-0.09531217,-0.46047994,-0.4021122,-0.11179006,707.1429,802.23444,821.1722,708.7546,813.91943,-0.21185302734375,-0.0367431640625,1.0032958984375,3.297271728515625,-2.76641845703125,0.456085205078125,1,1.0,1.0,1.0,1.0,50.00
2022-11-23 20:26:31.888,0.6946389,0.047996745,-0.09306786,0.6109518,0.49031252,0.021673292,-0.038968604,0.3415877,0.592212,0.25940934,0.21669982,0.6351331,0.16360645,-0.06079633,-0.06243644,0.18416178,-0.09531217,-0.46047994,-0.4021122,-0.11179006,728.49817,801.8315,815.9341,717.619,833.2601,-0.211181640625,-0.02978515625,0.99688720703125,2.34771728515625,0.16448974609375,1.57012939453125,1,1.0,1.0,1.0,1.0,50.00
2022-11-23 20:26:31.888,0.6946389,0.047996745,-0.09306786,0.6109518,0.49031252,0.021673292,-0.038968604,0.3415877,0.592212,0.25940934,0.21669982,0.6351331,0.16360645,-0.06079633,-0.06243644,0.18416178,-0.09531217,-0.46047994,-0.4021122,-0.11179006,707.5458,798.60803,817.5458,711.1722,731.7216,-0.211181640625,-0.02978515625,0.99688720703125,2.34771728515625,0.16448974609375,1.57012939453125,1,1.0,1.0,1.0,1.0,50.00
2022-11-23 20:26:31.889,0.6946389,0.047996745,-0.09306786,0.6109518,0.49031252,0.021673292,-0.038968604,0.3415877,0.592212,0.25940934,0.21669982,0.6351331,0.16360645,-0.06079633,-0.06243644,0.18416178,-0.09531217,-0.46047994,-0.4021122,-0.11179006,684.57874,802.23444,814.7253,695.4579,650.7326,-0.211181640625,-0.02978515625,0.99688720703125,2.34771728515625,0.16448974609375,1.57012939453125,1,1.0,1.0,1.0,1.0,50.00
2022-11-23 20:26:31.889,0.6946389,0.047996745,-0.09306786,0.6109518,0.49031252,0.021673292,-0.038968604,0.3415877,0.592212,0.25940934,0.21669982,0.6351331,0.16360645,-0.06079633,-0.06243644,0.18416178,-0.09531217,-0.46047994,-0.4021122,-0.11179006,711.5751,805.4579,811.9048,719.6337,714.3956,-0.211181640625,-0.02978515625,0.99688720703125,2.34771728515625,0.16448974609375,1.57012939453125,1,1.0,1.0,1.0,1.0,50.00
2022-11-23 20:26:31.889,0.6946389,0.047996745,-0.09306786,0.6109518,0.49031252,0.021673292,-0.038968604,0.3415877,0.592212,0.25940934,0.21669982,0.6351331,0.16360645,-0.06079633,-0.06243644,0.18416178,-0.09531217,-0.46047994,-0.4021122,-0.11179006,748.6447,805.8608,809.89014,740.18317,800.6227,-0.211181640625,-0.02978515625,0.99688720703125,2.34771728515625,0.16448974609375,1.57012939453125,1,1.0,1.0,1.0,1.0,50.00
2022-11-23 20:26:31.890,0.71395475,0.016161008,-0.15831389,0.59942096,0.5103553,0.014103719,-0.046205,0.35025162,0.592212,0.25940934,0.21122327,0.63412476,0.16640744,-0.058185104,-0.0514413,0.16259637,-0.08852338,-0.46115854,-0.3933467,-0.1095991,745.0183,801.4286,804.65204,732.1245,858.6447,-0.211181640625,-0.02978515625,0.99688720703125,2.34771728515625,0.16448974609375,1.57012939453125,1,1.0,1.0,1.0,1.0,50.00
2022-11-23 20:26:31.891,0.71395475,0.016161008,-0.15831389,0.59942096,0.5103553,0.014103719,-0.046205,0.35025162,0.592212,0.25940934,0.21122327,0.63412476,0.16640744,-0.058185104,-0.0514413,0.16259637,-0.08852338,-0.46115854,-0.3933467,-0.1095991,722.8571,799.41394,800.6227,719.6337,833.663,-0.211181640625,-0.02978515625,0.99688720703125,2.34771728515625,0.16448974609375,1.57012939453125,1,1.0,1.0,1.0,1.0,50.00
2022-11-23 20:26:31.891,0.71395475,0.016161008,-0.15831389,0.59942096,0.5103553,0.014103719,-0.046205,0.35025162,0.592212,0.25940934,0.21122327,0.63412476,0.16640744,-0.058185104,-0.0514413,0.16259637,-0.08852338,-0.46115854,-0.3933467,-0.1095991,733.3333,803.8461,801.4286,730.5128,697.47253,-0.211181640625,-0.02978515625,0.99688720703125,2.34771728515625,0.16448974609375,1.57012939453125,1,1.0,1.0,1.0,1.0,50.00
2022-11-23 20:26:31.892,0.71395475,0.016161008,-0.15831389,0.59942096,0.5103553,0.014103719,-0.046205,0.35025162,0.592212,0.25940934,0.21122327,0.63412476,0.16640744,-0.058185104,-0.0514413,0.16259637,-0.08852338,-0.46115854,-0.3933467,-0.1095991,770.80585,805.4579,806.6667,761.53845,776.04395,-0.211181640625,-0.02978515625,0.99688720703125,2.34771728515625,0.16448974609375,1.57012939453125,1,1.0,1.0,1.0,1.0,50.00
2022-11-23 20:26:31.892,0.71395475,0.016161008,-0.15831389,0.59942096,0.5103553,0.014103719,-0.046205,0.35025162,0.592212,0.25940934,0.21122327,0.63412476,0.16640744,-0.058185104,-0.0514413,0.16259637,-0.08852338,-0.46115854,-0.3933467,-0.1095991,784.90845,802.6374,804.2491,768.3883,834.4689,-0.211181640625,-0.02978515625,0.99688720703125,2.34771728515625,0.16448974609375,1.57012939453125,1,1.0,1.0,1.0,1.0,50.00
2022-11-23 20:26:31.892,0.71395475,0.016161008,-0.15831389,0.59942096,0.5103553,0.014103719,-0.046205,0.35025162,0.592212,0.25940934,0.21122327,0.63412476,0.16640744,-0.058185104,-0.0514413,0.16259637,-0.08852338,-0.46115854,-0.3933467,-0.1095991,751.8681,799.81683,799.81683,745.82416,826.4103,-0.211181640625,-0.02978515625,0.99688720703125,2.34771728515625,0.16448974609375,1.57012939453125,1,1.0,1.0,1.0,1.0,50.00
2022-11-23 20:26:31.892,0.71395475,0.016161008,-0.15831389,0.59942096,0.5103553,0.014103719,-0.046205,0.35025162,0.592212,0.25940934,0.21122327,0.63412476,0.16640744,-0.058185104,-0.0514413,0.16259637,-0.08852338,-0.46115854,-0.3933467,-0.1095991,742.6007,801.4286,802.23444,739.3773,760.7326,-0.211181640625,-0.02978515625,0.99688720703125,2.34771728515625,0.16448974609375,1.57012939453125,1,1.0,1.0,1.0,1.0,50.00
2022-11-23 20:26:31.921,0.71395475,0.016161008,-0.15831389,0.59942096,0.5103553,0.014103719,-0.046205,0.35025162,0.592212,0.25940934,0.21122327,0.63412476,0.16640744,-0.058185104,-0.0514413,0.16259637,-0.08852338,-0.46115854,-0.3933467,-0.1095991,784.10254,800.2198,803.8461,771.6117,728.0952,-0.2330322265625,-0.03619384765625,0.9949951171875,2.01873779296875,2.0635986328125,1.136474609375,1,1.0,1.0,1.0,1.0,50.00
2022-11-23 20:26:31.922,0.71395475,0.016161008,-0.15831389,0.59942096,0.5103553,0.014103719,-0.046205,0.35025162,0.592212,0.25940934,0.21122327,0.63412476,0.16640744,-0.058185104,-0.0514413,0.16259637,-0.08852338,-0.46115854,-0.3933467,-0.1095991,799.41394,799.011,804.2491,786.1172,912.23444,-0.2330322265625,-0.03619384765625,0.9949951171875,2.01873779296875,2.0635986328125,1.136474609375,1,1.0,1.0,1.0,1.0,50.00
2022-11-23 20:26:31.922,0.71395475,0.016161008,-0.15831389,0.59942096,0.5103553,0.014103719,-0.046205,0.35025162,0.592212,0.25940934,0.21122327,0.63412476,0.16640744,-0.058185104,-0.0514413,0.16259637,-0.08852338,-0.46115854,-0.3933467,-0.1095991,775.2381,803.0403,805.4579,765.9707,872.74725,-0.2330322265625,-0.03619384765625,0.9949951171875,2.01873779296875,2.0635986328125,1.136474609375,1,1.0,1.0,1.0,1.0,50.00
2022-11-23 20:26:31.922,0.71395475,0.016161008,-0.15831389,0.59942096,0.5103553,0.014103719,-0.046205,0.35025162,0.592212,0.25940934,0.21122327,0.63412476,0.16640744,-0.058185104,-0.0514413,0.16259637,-0.08852338,-0.46115854,-0.3933467,-0.1095991,753.8828,805.8608,806.6667,757.1062,653.5531,-0.2330322265625,-0.03619384765625,0.9949951171875,2.01873779296875,2.0635986328125,1.136474609375,1,1.0,1.0,1.0,1.0,50.00
2022-11-23 20:26:31.923,0.71395475,0.016161008,-0.15831389,0.59942096,0.5103553,0.014103719,-0.046205,0.35025162,0.592212,0.25940934,0.21122327,0.63412476,0.16640744,-0.058185104,-0.0514413,0.16259637,-0.08852338,-0.46115854,-0.3933467,-0.1095991,778.86444,804.65204,802.6374,788.5348,701.9048,-0.2330322265625,-0.03619384765625,0.9949951171875,2.01873779296875,2.0635986328125,1.136474609375,1,1.0,1.0,1.0,1.0,50.00
2022-11-23 20:26:31.923,0.71395475,0.016161008,-0.15831389,0.59942096,0.5103553,0.014103719,-0.046205,0.35025162,0.592212,0.25940934,0.21122327,0.63412476,0.16640744,-0.058185104,-0.0514413,0.16259637,-0.08852338,-0.46115854,-0.3933467,-0.1095991,811.50183,803.0403,798.60803,814.7253,1027.0696,-0.2330322265625,-0.03619384765625,0.9949951171875,2.01873779296875,2.0635986328125,1.136474609375,1,1.0,1.0,1.0,1.0,50.00
2022-11-23 20:26:31.923,0.71395475,0.016161008,-0.15831389,0.59942096,0.5103553,0.014103719,-0.046205,0.35025162,0.592212,0.25940934,0.21122327,0.63412476,0.16640744,-0.058185104,-0.0514413,0.16259637,-0.08852338,-0.46115854,-0.3933467,-0.1095991,790.54944,801.8315,801.8315,796.99634,1058.9011,-0.2330322265625,-0.03619384765625,0.9949951171875,2.01873779296875,2.0635986328125,1.136474609375,1,1.0,1.0,1.0,1.0,50.00
2022-11-23 20:26:31.924,0.71395475,0.016161008,-0.15831389,0.59942096,0.5103553,0.014103719,-0.046205,0.35025162,0.592212,0.25940934,0.21122327,0.63412476,0.16640744,-0.058185104,-0.0514413,0.16259637,-0.08852338,-0.46115854,-0.3933467,-0.1095991,757.9121,802.23444,800.6227,779.67035,757.9121,-0.2330322265625,-0.03619384765625,0.9949951171875,2.01873779296875,2.0635986328125,1.136474609375,1,1.0,1.0,1.0,1.0,50.00
2022-11-23 20:26:31.924,0.71395475,0.016161008,-0.15831389,0.59942096,0.5103553,0.014103719,-0.046205,0.35025162,0.592212,0.25940934,0.21122327,0.63412476,0.16640744,-0.058185104,-0.0514413,0.16259637,-0.08852338,-0.46115854,-0.3933467,-0.1095991,780.07324,801.02563,802.6374,803.0403,688.60803,-0.2330322265625,-0.03619384765625,0.9949951171875,2.01873779296875,2.0635986328125,1.136474609375,1,1.0,1.0,1.0,1.0,50.00
2022-11-23 20:26:31.924,0.71395475,0.016161008,-0.15831389,0.59942096,0.5103553,0.014103719,-0.046205,0.35025162,0.592212,0.25940934,0.21122327,0.63412476,0.16640744,-0.058185104,-0.0514413,0.16259637,-0.08852338,-0.46115854,-0.3933467,-0.1095991,819.9634,794.57874,805.4579,826.4103,913.44324,-0.2330322265625,-0.03619384765625,0.9949951171875,2.01873779296875,2.0635986328125,1.136474609375,1,1.0,1.0,1.0,1.0,50.00
2022-11-23 20:26:31.924,0.71395475,0.016161008,-0.15831389,0.59942096,0.5103553,0.014103719,-0.046205,0.35025162,0.592212,0.25940934,0.21122327,0.63412476,0.16640744,-0.058185104,-0.0514413,0.16259637,-0.08852338,-0.46115854,-0.3933467,-0.1095991,809.0842,799.41394,799.81683,811.9048,931.978,-0.2330322265625,-0.03619384765625,0.9949951171875,2.01873779296875,2.0635986328125,1.136474609375,1,1.0,1.0,1.0,1.0,50.00
2022-11-23 20:26:31.925,0.71395475,0.016161008,-0.15831389,0.59942096,0.5103553,0.014103719,-0.046205,0.35025162,0.592212,0.25940934,0.21122327,0.63412476,0.16640744,-0.058185104,-0.0514413,0.16259637,-0.08852338,-0.46115854,-0.3933467,-0.1095991,783.2967,806.6667,799.81683,797.8022,650.7326,-0.2330322265625,-0.03619384765625,0.9949951171875,2.01873779296875,2.0635986328125,1.136474609375,1,1.0,1.0,1.0,1.0,50.00
2022-11-23 20:26:31.968,0.71395475,0.016161008,-0.15831389,0.59942096,0.5103553,0.014103719,-0.046205,0.35025162,0.592212,0.25940934,0.21122327,0.63412476,0.16640744,-0.058185104,-0.0514413,0.16259637,-0.08852338,-0.46115854,-0.3933467,-0.1095991,789.7436,806.26373,801.4286,804.65204,666.8498,-0.2330322265625,-0.03619384765625,0.9949951171875,2.01873779296875,2.0635986328125,1.136474609375,1,1.0,1.0,1.0,1.0,50.00
2022-11-23 20:26:31.968,0.71395475,0.016161008,-0.15831389,0.59942096,0.5103553,0.014103719,-0.046205,0.35025162,0.592212,0.25940934,0.21122327,0.63412476,0.16640744,-0.058185104,-0.0514413,0.16259637,-0.08852338,-0.46115854,-0.3933467,-0.1095991,831.6484,802.6374,799.41394,823.9927,814.7253,-0.2330322265625,-0.03619384765625,0.9949951171875,2.01873779296875,2.0635986328125,1.136474609375,1,1.0,1.0,1.0,1.0,50.00
2022-11-23 20:26:31.968,0.71395475,0.016161008,-0.15831389,0.59942096,0.5103553,0.014103719,-0.046205,0.35025162,0.592212,0.25940934,0.21122327,0.63412476,0.16640744,-0.058185104,-0.0514413,0.16259637,-0.08852338,-0.46115854,-0.3933467,-0.1095991,843.3333,802.6374,799.011,822.381,800.6227,-0.2330322265625,-0.03619384765625,0.9949951171875,2.01873779296875,2.0635986328125,1.136474609375,1,1.0,1.0,1.0,1.0,50.00
2022-11-23 20:26:31.969,0.71395475,0.016161008,-0.15831389,0.59942096,0.5103553,0.014103719,-0.046205,0.35025162,0.592212,0.25940934,0.21122327,0.63412476,0.16640744,-0.058185104,-0.0514413,0.16259637,-0.08852338,-0.46115854,-0.3933467,-0.1095991,809.0842,806.6667,799.81683,801.4286,628.97437,-0.2330322265625,-0.03619384765625,0.9949951171875,2.01873779296875,2.0635986328125,1.136474609375,1,1.0,1.0,1.0,1.0,50.00
2022-11-23 20:26:31.969,0.71395475,0.016161008,-0.15831389,0.59942096,0.5103553,0.014103719,-0.046205,0.35025162,0.592212,0.25940934,0.21122327,0.63412476,0.16640744,-0.058185104,-0.0514413,0.16259637,-0.08852338,-0.46115854,-0.3933467,-0.1095991,796.99634,803.44324,795.38464,800.2198,553.6264,-0.2330322265625,-0.03619384765625,0.9949951171875,2.01873779296875,2.0635986328125,1.136474609375,1,1.0,1.0,1.0,1.0,50.00
2022-11-23 20:26:31.969,0.71395475,0.016161008,-0.15831389,0.59942096,0.5103553,0.014103719,-0.046205,0.35025162,0.592212,0.25940934,0.21122327,0.63412476,0.16640744,-0.058185104,-0.0514413,0.16259637,-0.08852338,-0.46115854,-0.3933467,-0.1095991,822.7839,799.011,789.7436,825.2015,930.7692,-0.2330322265625,-0.03619384765625,0.9949951171875,2.01873779296875,2.0635986328125,1.136474609375,1,1.0,1.0,1.0,1.0,50.00
2022-11-23 20:26:31.969,0.71395475,0.016161008,-0.15831389,0.59942096,0.5103553,0.014103719,-0.046205,0.35025162,0.592212,0.25940934,0.21122327,0.63412476,0.16640744,-0.058185104,-0.0514413,0.16259637,-0.08852338,-0.46115854,-0.3933467,-0.1095991,843.3333,800.6227,790.54944,838.0952,1129.011,-0.2330322265625,-0.03619384765625,0.9949951171875,2.01873779296875,2.0635986328125,1.136474609375,1,1.0,1.0,1.0,1.0,50.00
2022-11-23 20:26:31,,,,,,,,,,,,,,,,,,,,,,,,,,,,,,,,,,,,,,/muse/elements/blink
2022-11-23 20:26:31.970,0.73138,-0.03419445,-0.218602,0.5875608,0.5251503,0.0018726785,-0.05038739,0.36418527,0.592212,0.25289956,0.20029826,0.63273424,0.1708941,-0.053379133,-0.046319645,0.13814904,-0.08915497,-0.4635604,-0.38308296,-0.10391126,815.9341,801.4286,789.34064,809.4872,773.22345,-0.2330322265625,-0.03619384765625,0.9949951171875,2.01873779296875,2.0635986328125,1.136474609375,1,1.0,1.0,1.0,1.0,50.00
2022-11-23 20:26:31.971,0.73138,-0.03419445,-0.218602,0.5875608,0.5251503,0.0018726785,-0.05038739,0.36418527,0.592212,0.25289956,0.20029826,0.63273424,0.1708941,-0.053379133,-0.046319645,0.13814904,-0.08915497,-0.4635604,-0.38308296,-0.10391126,788.1319,800.2198,793.7729,791.75824,599.5604,-0.2330322265625,-0.03619384765625,0.9949951171875,2.01873779296875,2.0635986328125,1.136474609375,1,1.0,1.0,1.0,1.0,50.00
2022-11-23 20:26:31.971,0.73138,-0.03419445,-0.218602,0.5875608,0.5251503,0.0018726785,-0.05038739,0.36418527,0.592212,0.25289956,0.20029826,0.63273424,0.1708941,-0.053379133,-0.046319645,0.13814904,-0.08915497,-0.4635604,-0.38308296,-0.10391126,816.7399,800.2198,800.2198,815.5311,787.326,-0.2330322265625,-0.03619384765625,0.9949951171875,2.01873779296875,2.0635986328125,1.136474609375,1,1.0,1.0,1.0,1.0,50.00
2022-11-23 20:26:31.972,0.73138,-0.03419445,-0.218602,0.5875608,0.5251503,0.0018726785,-0.05038739,0.36418527,0.592212,0.25289956,0.20029826,0.63273424,0.1708941,-0.053379133,-0.046319645,0.13814904,-0.08915497,-0.4635604,-0.38308296,-0.10391126,850.58606,803.8461,805.4579,838.9011,906.5934,-0.2330322265625,-0.03619384765625,0.9949951171875,2.01873779296875,2.0635986328125,1.136474609375,1,1.0,1.0,1.0,1.0,50.00
2022-11-23 20:26:31.972,0.73138,-0.03419445,-0.218602,0.5875608,0.5251503,0.0018726785,-0.05038739,0.36418527,0.592212,0.25289956,0.20029826,0.63273424,0.1708941,-0.053379133,-0.046319645,0.13814904,-0.08915497,-0.4635604,-0.38308296,-0.10391126,830.84247,803.8461,805.8608,821.1722,718.4249,-0.2330322265625,-0.03619384765625,0.9949951171875,2.01873779296875,2.0635986328125,1.136474609375,1,1.0,1.0,1.0,1.0,50.00
2022-11-23 20:26:32.017,0.73138,-0.03419445,-0.218602,0.5875608,0.5251503,0.0018726785,-0.05038739,0.36418527,0.592212,0.25289956,0.20029826,0.63273424,0.1708941,-0.053379133,-0.046319645,0.13814904,-0.08915497,-0.4635604,-0.38308296,-0.10391126,797.8022,800.6227,804.2491,799.011,656.3736,-0.2442626953125,-0.0396728515625,0.98406982421875,2.086029052734375,2.37762451171875,0.336456298828125,1,1.0,1.0,1.0,1.0,50.00
2022-11-23 20:26:32.017,0.73138,-0.03419445,-0.218602,0.5875608,0.5251503,0.0018726785,-0.05038739,0.36418527,0.592212,0.25289956,0.20029826,0.63273424,0.1708941,-0.053379133,-0.046319645,0.13814904,-0.08915497,-0.4635604,-0.38308296,-0.10391126,806.26373,799.011,809.0842,815.5311,780.87915,-0.2442626953125,-0.0396728515625,0.98406982421875,2.086029052734375,2.37762451171875,0.336456298828125,1,1.0,1.0,1.0,1.0,50.00
2022-11-23 20:26:32.018,0.73138,-0.03419445,-0.218602,0.5875608,0.5251503,0.0018726785,-0.05038739,0.36418527,0.592212,0.25289956,0.20029826,0.63273424,0.1708941,-0.053379133,-0.046319645,0.13814904,-0.08915497,-0.4635604,-0.38308296,-0.10391126,836.8865,805.05493,809.89014,838.9011,945.6777,-0.2442626953125,-0.0396728515625,0.98406982421875,2.086029052734375,2.37762451171875,0.336456298828125,1,1.0,1.0,1.0,1.0,50.00
2022-11-23 20:26:32.018,0.73138,-0.03419445,-0.218602,0.5875608,0.5251503,0.0018726785,-0.05038739,0.36418527,0.592212,0.25289956,0.20029826,0.63273424,0.1708941,-0.053379133,-0.046319645,0.13814904,-0.08915497,-0.4635604,-0.38308296,-0.10391126,828.8278,808.2784,803.8461,828.022,918.68134,-0.2442626953125,-0.0396728515625,0.98406982421875,2.086029052734375,2.37762451171875,0.336456298828125,1,1.0,1.0,1.0,1.0,50.00
2022-11-23 20:26:32.018,0.73138,-0.03419445,-0.218602,0.5875608,0.5251503,0.0018726785,-0.05038739,0.36418527,0.592212,0.25289956,0.20029826,0.63273424,0.1708941,-0.053379133,-0.046319645,0.13814904,-0.08915497,-0.4635604,-0.38308296,-0.10391126,796.99634,807.47253,803.44324,805.8608,707.1429,-0.2442626953125,-0.0396728515625,0.98406982421875,2.086029052734375,2.37762451171875,0.336456298828125,1,1.0,1.0,1.0,1.0,50.00
2022-11-23 20:26:32.018,0.73138,-0.03419445,-0.218602,0.5875608,0.5251503,0.0018726785,-0.05038739,0.36418527,0.592212,0.25289956,0.20029826,0.63273424,0.1708941,-0.053379133,-0.046319645,0.13814904,-0.08915497,-0.4635604,-0.38308296,-0.10391126,794.57874,806.6667,805.05493,807.47253,647.1062,-0.2442626953125,-0.0396728515625,0.98406982421875,2.086029052734375,2.37762451171875,0.336456298828125,1,1.0,1.0,1.0,1.0,50.00
2022-11-23 20:26:32.019,0.73138,-0.03419445,-0.218602,0.5875608,0.5251503,0.0018726785,-0.05038739,0.36418527,0.592212,0.25289956,0.20029826,0.63273424,0.1708941,-0.053379133,-0.046319645,0.13814904,-0.08915497,-0.4635604,-0.38308296,-0.10391126,823.9927,804.65204,799.011,831.2454,827.619,-0.2442626953125,-0.0396728515625,0.98406982421875,2.086029052734375,2.37762451171875,0.336456298828125,1,1.0,1.0,1.0,1.0,50.00
2022-11-23 20:26:32.019,0.73138,-0.03419445,-0.218602,0.5875608,0.5251503,0.0018726785,-0.05038739,0.36418527,0.592212,0.25289956,0.20029826,0.63273424,0.1708941,-0.053379133,-0.046319645,0.13814904,-0.08915497,-0.4635604,-0.38308296,-0.10391126,832.8571,803.8461,796.5934,838.49817,940.4396,-0.2442626953125,-0.0396728515625,0.98406982421875,2.086029052734375,2.37762451171875,0.336456298828125,1,1.0,1.0,1.0,1.0,50.00
2022-11-23 20:26:32.019,0.73138,-0.03419445,-0.218602,0.5875608,0.5251503,0.0018726785,-0.05038739,0.36418527,0.592212,0.25289956,0.20029826,0.63273424,0.1708941,-0.053379133,-0.046319645,0.13814904,-0.08915497,-0.4635604,-0.38308296,-0.10391126,803.0403,799.81683,797.8022,814.7253,822.381,-0.2442626953125,-0.0396728515625,0.98406982421875,2.086029052734375,2.37762451171875,0.336456298828125,1,1.0,1.0,1.0,1.0,50.00
2022-11-23 20:26:32.019,0.73138,-0.03419445,-0.218602,0.5875608,0.5251503,0.0018726785,-0.05038739,0.36418527,0.592212,0.25289956,0.20029826,0.63273424,0.1708941,-0.053379133,-0.046319645,0.13814904,-0.08915497,-0.4635604,-0.38308296,-0.10391126,784.5055,797.3993,797.8022,805.4579,868.71796,-0.2442626953125,-0.0396728515625,0.98406982421875,2.086029052734375,2.37762451171875,0.336456298828125,1,1.0,1.0,1.0,1.0,50.00
2022-11-23 20:26:32.020,0.73138,-0.03419445,-0.218602,0.5875608,0.5251503,0.0018726785,-0.05038739,0.36418527,0.592212,0.25289956,0.20029826,0.63273424,0.1708941,-0.053379133,-0.046319645,0.13814904,-0.08915497,-0.4635604,-0.38308296,-0.10391126,812.3077,798.60803,797.3993,826.0073,925.5311,-0.2442626953125,-0.0396728515625,0.98406982421875,2.086029052734375,2.37762451171875,0.336456298828125,1,1.0,1.0,1.0,1.0,50.00
2022-11-23 20:26:32.020,0.73138,-0.03419445,-0.218602,0.5875608,0.5251503,0.0018726785,-0.05038739,0.36418527,0.592212,0.25289956,0.20029826,0.63273424,0.1708941,-0.053379133,-0.046319645,0.13814904,-0.08915497,-0.4635604,-0.38308296,-0.10391126,840.10986,796.5934,795.78754,839.304,969.0476,-0.2442626953125,-0.0396728515625,0.98406982421875,2.086029052734375,2.37762451171875,0.336456298828125,1,1.0,1.0,1.0,1.0,50.00
2022-11-23 20:26:32.067,0.73138,-0.03419445,-0.218602,0.5875608,0.5251503,0.0018726785,-0.05038739,0.36418527,0.592212,0.25289956,0.20029826,0.63273424,0.1708941,-0.053379133,-0.046319645,0.13814904,-0.08915497,-0.4635604,-0.38308296,-0.10391126,817.9487,794.9817,796.99634,823.1868,900.14655,-0.25323486328125,-0.04864501953125,0.98468017578125,3.33465576171875,2.310333251953125,-0.5084228515625,1,1.0,1.0,1.0,1.0,50.00
2022-11-23 20:26:32.067,0.73138,-0.03419445,-0.218602,0.5875608,0.5251503,0.0018726785,-0.05038739,0.36418527,0.592212,0.25289956,0.20029826,0.63273424,0.1708941,-0.053379133,-0.046319645,0.13814904,-0.08915497,-0.4635604,-0.38308296,-0.10391126,791.75824,801.8315,803.0403,805.8608,676.9231,-0.25323486328125,-0.04864501953125,0.98468017578125,3.33465576171875,2.310333251953125,-0.5084228515625,1,1.0,1.0,1.0,1.0,50.00
2022-11-23 20:26:32.068,0.73138,-0.03419445,-0.218602,0.5875608,0.5251503,0.0018726785,-0.05038739,0.36418527,0.592212,0.25289956,0.20029826,0.63273424,0.1708941,-0.053379133,-0.046319645,0.13814904,-0.08915497,-0.4635604,-0.38308296,-0.10391126,811.0989,805.05493,805.8608,817.9487,664.0293,-0.25323486328125,-0.04864501953125,0.98468017578125,3.33465576171875,2.310333251953125,-0.5084228515625,1,1.0,1.0,1.0,1.0,50.00
2022-11-23 20:26:32.068,0.73138,-0.03419445,-0.218602,0.5875608,0.5251503,0.0018726785,-0.05038739,0.36418527,0.592212,0.25289956,0.20029826,0.63273424,0.1708941,-0.053379133,-0.046319645,0.13814904,-0.08915497,-0.4635604,-0.38308296,-0.10391126,846.1539,801.4286,805.8608,835.6777,860.2564,-0.25323486328125,-0.04864501953125,0.98468017578125,3.33465576171875,2.310333251953125,-0.5084228515625,1,1.0,1.0,1.0,1.0,50.00
2022-11-23 20:26:32.068,0.73138,-0.03419445,-0.218602,0.5875608,0.5251503,0.0018726785,-0.05038739,0.36418527,0.592212,0.25289956,0.20029826,0.63273424,0.1708941,-0.053379133,-0.046319645,0.13814904,-0.08915497,-0.4635604,-0.38308296,-0.10391126,832.8571,805.4579,804.2491,822.7839,891.28204,-0.25323486328125,-0.04864501953125,0.98468017578125,3.33465576171875,2.310333251953125,-0.5084228515625,1,1.0,1.0,1.0,1.0,50.00
2022-11-23 20:26:32.068,0.73138,-0.03419445,-0.218602,0.5875608,0.5251503,0.0018726785,-0.05038739,0.36418527,0.592212,0.25289956,0.20029826,0.63273424,0.1708941,-0.053379133,-0.046319645,0.13814904,-0.08915497,-0.4635604,-0.38308296,-0.10391126,798.60803,809.4872,803.0403,798.60803,837.28937,-0.25323486328125,-0.04864501953125,0.98468017578125,3.33465576171875,2.310333251953125,-0.5084228515625,1,1.0,1.0,1.0,1.0,50.00
2022-11-23 20:26:32.069,0.73138,-0.03419445,-0.218602,0.5875608,0.5251503,0.0018726785,-0.05038739,0.36418527,0.592212,0.25289956,0.20029826,0.63273424,0.1708941,-0.053379133,-0.046319645,0.13814904,-0.08915497,-0.4635604,-0.38308296,-0.10391126,800.2198,806.6667,800.6227,807.8755,888.0586,-0.25323486328125,-0.04864501953125,0.98468017578125,3.33465576171875,2.310333251953125,-0.5084228515625,1,1.0,1.0,1.0,1.0,50.00
2022-11-23 20:26:32.069,0.73138,-0.03419445,-0.218602,0.5875608,0.5251503,0.0018726785,-0.05038739,0.36418527,0.592212,0.25289956,0.20029826,0.63273424,0.1708941,-0.053379133,-0.046319645,0.13814904,-0.08915497,-0.4635604,-0.38308296,-0.10391126,833.2601,804.2491,801.4286,833.2601,941.2454,-0.25323486328125,-0.04864501953125,0.98468017578125,3.33465576171875,2.310333251953125,-0.5084228515625,1,1.0,1.0,1.0,1.0,50.00
2022-11-23 20:26:32.069,0.73138,-0.03419445,-0.218602,0.5875608,0.5251503,0.0018726785,-0.05038739,0.36418527,0.592212,0.25289956,0.20029826,0.63273424,0.1708941,-0.053379133,-0.046319645,0.13814904,-0.08915497,-0.4635604,-0.38308296,-0.10391126,840.10986,805.8608,801.4286,832.8571,1119.7435,-0.25323486328125,-0.04864501953125,0.98468017578125,3.33465576171875,2.310333251953125,-0.5084228515625,1,1.0,1.0,1.0,1.0,50.00
2022-11-23 20:26:32.069,0.7450918,-0.08934215,-0.22278035,0.5829517,0.5350986,-0.012385447,-0.040600117,0.3797198,0.55861944,0.24710895,0.19693005,0.63273424,0.17782491,-0.05061917,-0.04829802,0.11883174,-0.097608246,-0.47044975,-0.3768212,-0.09445221,802.23444,804.2491,799.41394,804.65204,994.0293,-0.25323486328125,-0.04864501953125,0.98468017578125,3.33465576171875,2.310333251953125,-0.5084228515625,1,1.0,1.0,1.0,1.0,50.00
2022-11-23 20:26:32.071,0.7450918,-0.08934215,-0.22278035,0.5829517,0.5350986,-0.012385447,-0.040600117,0.3797198,0.55861944,0.24710895,0.19693005,0.63273424,0.17782491,-0.05061917,-0.04829802,0.11883174,-0.097608246,-0.47044975,-0.3768212,-0.09445221,794.17584,798.60803,805.8608,803.44324,718.8278,-0.25323486328125,-0.04864501953125,0.98468017578125,3.33465576171875,2.310333251953125,-0.5084228515625,1,1.0,1.0,1.0,1.0,50.00
2022-11-23 20:26:32.071,0.7450918,-0.08934215,-0.22278035,0.5829517,0.5350986,-0.012385447,-0.040600117,0.3797198,0.55861944,0.24710895,0.19693005,0.63273424,0.17782491,-0.05061917,-0.04829802,0.11883174,-0.097608246,-0.47044975,-0.3768212,-0.09445221,841.31866,795.38464,809.0842,840.9158,865.4945,-0.25323486328125,-0.04864501953125,0.98468017578125,3.33465576171875,2.310333251953125,-0.5084228515625,1,1.0,1.0,1.0,1.0,50.00
2022-11-23 20:26:32.117,0.7450918,-0.08934215,-0.22278035,0.5829517,0.5350986,-0.012385447,-0.040600117,0.3797198,0.55861944,0.24710895,0.19693005,0.63273424,0.17782491,-0.05061917,-0.04829802,0.11883174,-0.097608246,-0.47044975,-0.3768212,-0.09445221,856.2271,802.23444,805.4579,847.3626,1014.57874,-0.2491455078125,-0.04107666015625,0.97882080078125,4.6954345703125,1.577606201171875,-0.142059326171875,1,1.0,1.0,1.0,1.0,50.00
2022-11-23 20:26:32.118,0.7450918,-0.08934215,-0.22278035,0.5829517,0.5350986,-0.012385447,-0.040600117,0.3797198,0.55861944,0.24710895,0.19693005,0.63273424,0.17782491,-0.05061917,-0.04829802,0.11883174,-0.097608246,-0.47044975,-0.3768212,-0.09445221,807.0696,817.1429,800.6227,804.65204,789.7436,-0.2491455078125,-0.04107666015625,0.97882080078125,4.6954345703125,1.577606201171875,-0.142059326171875,1,1.0,1.0,1.0,1.0,50.00
2022-11-23 20:26:32.118,0.7450918,-0.08934215,-0.22278035,0.5829517,0.5350986,-0.012385447,-0.040600117,0.3797198,0.55861944,0.24710895,0.19693005,0.63273424,0.17782491,-0.05061917,-0.04829802,0.11883174,-0.097608246,-0.47044975,-0.3768212,-0.09445221,784.5055,820.3663,797.8022,786.1172,519.7802,-0.2491455078125,-0.04107666015625,0.97882080078125,4.6954345703125,1.577606201171875,-0.142059326171875,1,1.0,1.0,1.0,1.0,50.00
2022-11-23 20:26:32.119,0.7450918,-0.08934215,-0.22278035,0.5829517,0.5350986,-0.012385447,-0.040600117,0.3797198,0.55861944,0.24710895,0.19693005,0.63273424,0.17782491,-0.05061917,-0.04829802,0.11883174,-0.097608246,-0.47044975,-0.3768212,-0.09445221,817.1429,814.3223,798.60803,810.696,614.0659,-0.2491455078125,-0.04107666015625,0.97882080078125,4.6954345703125,1.577606201171875,-0.142059326171875,1,1.0,1.0,1.0,1.0,50.00
2022-11-23 20:26:32.119,0.7450918,-0.08934215,-0.22278035,0.5829517,0.5350986,-0.012385447,-0.040600117,0.3797198,0.55861944,0.24710895,0.19693005,0.63273424,0.17782491,-0.05061917,-0.04829802,0.11883174,-0.097608246,-0.47044975,-0.3768212,-0.09445221,841.31866,815.5311,802.6374,829.2308,777.6557,-0.2491455078125,-0.04107666015625,0.97882080078125,4.6954345703125,1.577606201171875,-0.142059326171875,1,1.0,1.0,1.0,1.0,50.00
2022-11-23 20:26:32.119,0.7450918,-0.08934215,-0.22278035,0.5829517,0.5350986,-0.012385447,-0.040600117,0.3797198,0.55861944,0.24710895,0.19693005,0.63273424,0.17782491,-0.05061917,-0.04829802,0.11883174,-0.097608246,-0.47044975,-0.3768212,-0.09445221,816.7399,816.7399,802.6374,810.696,723.663,-0.2491455078125,-0.04107666015625,0.97882080078125,4.6954345703125,1.577606201171875,-0.142059326171875,1,1.0,1.0,1.0,1.0,50.00
2022-11-23 20:26:32.119,0.7450918,-0.08934215,-0.22278035,0.5829517,0.5350986,-0.012385447,-0.040600117,0.3797198,0.55861944,0.24710895,0.19693005,0.63273424,0.17782491,-0.05061917,-0.04829802,0.11883174,-0.097608246,-0.47044975,-0.3768212,-0.09445221,786.9231,811.0989,806.26373,790.54944,555.64105,-0.2491455078125,-0.04107666015625,0.97882080078125,4.6954345703125,1.577606201171875,-0.142059326171875,1,1.0,1.0,1.0,1.0,50.00
2022-11-23 20:26:32.120,0.7450918,-0.08934215,-0.22278035,0.5829517,0.5350986,-0.012385447,-0.040600117,0.3797198,0.55861944,0.24710895,0.19693005,0.63273424,0.17782491,-0.05061917,-0.04829802,0.11883174,-0.097608246,-0.47044975,-0.3768212,-0.09445221,806.26373,807.8755,809.89014,809.0842,755.4945,-0.2491455078125,-0.04107666015625,0.97882080078125,4.6954345703125,1.577606201171875,-0.142059326171875,1,1.0,1.0,1.0,1.0,50.00
2022-11-23 20:26:32.120,0.7450918,-0.08934215,-0.22278035,0.5829517,0.5350986,-0.012385447,-0.040600117,0.3797198,0.55861944,0.24710895,0.19693005,0.63273424,0.17782491,-0.05061917,-0.04829802,0.11883174,-0.097608246,-0.47044975,-0.3768212,-0.09445221,836.4835,805.8608,808.2784,834.0659,1049.2307,-0.2491455078125,-0.04107666015625,0.97882080078125,4.6954345703125,1.577606201171875,-0.142059326171875,1,1.0,1.0,1.0,1.0,50.00
2022-11-23 20:26:32.120,0.7450918,-0.08934215,-0.22278035,0.5829517,0.5350986,-0.012385447,-0.040600117,0.3797198,0.55861944,0.24710895,0.19693005,0.63273424,0.17782491,-0.05061917,-0.04829802,0.11883174,-0.097608246,-0.47044975,-0.3768212,-0.09445221,822.7839,803.8461,806.6667,820.7692,833.2601,-0.2491455078125,-0.04107666015625,0.97882080078125,4.6954345703125,1.577606201171875,-0.142059326171875,1,1.0,1.0,1.0,1.0,50.00
2022-11-23 20:26:32.120,0.7450918,-0.08934215,-0.22278035,0.5829517,0.5350986,-0.012385447,-0.040600117,0.3797198,0.55861944,0.24710895,0.19693005,0.63273424,0.17782491,-0.05061917,-0.04829802,0.11883174,-0.097608246,-0.47044975,-0.3768212,-0.09445221,790.54944,803.44324,804.65204,796.99634,605.2015,-0.2491455078125,-0.04107666015625,0.97882080078125,4.6954345703125,1.577606201171875,-0.142059326171875,1,1.0,1.0,1.0,1.0,50.00
2022-11-23 20:26:32.121,0.7450918,-0.08934215,-0.22278035,0.5829517,0.5350986,-0.012385447,-0.040600117,0.3797198,0.55861944,0.24710895,0.19693005,0.63273424,0.17782491,-0.05061917,-0.04829802,0.11883174,-0.097608246,-0.47044975,-0.3768212,-0.09445221,794.57874,799.81683,801.4286,802.23444,735.34796,-0.2491455078125,-0.04107666015625,0.97882080078125,4.6954345703125,1.577606201171875,-0.142059326171875,1,1.0,1.0,1.0,1.0,50.00
2022-11-23 20:26:32.143,0.7450918,-0.08934215,-0.22278035,0.5829517,0.5350986,-0.012385447,-0.040600117,0.3797198,0.55861944,0.24710895,0.19693005,0.63273424,0.17782491,-0.05061917,-0.04829802,0.11883174,-0.097608246,-0.47044975,-0.3768212,-0.09445221,828.8278,801.02563,801.02563,826.4103,981.53845,-0.25445556640625,-0.0325927734375,0.97955322265625,6.519775390625,1.1663818359375,0.949554443359375,1,1.0,1.0,1.0,1.0,50.00
2022-11-23 20:26:32.143,0.7450918,-0.08934215,-0.22278035,0.5829517,0.5350986,-0.012385447,-0.040600117,0.3797198,0.55861944,0.24710895,0.19693005,0.63273424,0.17782491,-0.05061917,-0.04829802,0.11883174,-0.097608246,-0.47044975,-0.3768212,-0.09445221,830.84247,804.65204,802.6374,826.8132,971.4652,-0.25445556640625,-0.0325927734375,0.97955322265625,6.519775390625,1.1663818359375,0.949554443359375,1,1.0,1.0,1.0,1.0,50.00
2022-11-23 20:26:32.143,0.7450918,-0.08934215,-0.22278035,0.5829517,0.5350986,-0.012385447,-0.040600117,0.3797198,0.55861944,0.24710895,0.19693005,0.63273424,0.17782491,-0.05061917,-0.04829802,0.11883174,-0.097608246,-0.47044975,-0.3768212,-0.09445221,795.38464,805.8608,805.8608,803.0403,685.78754,-0.25445556640625,-0.0325927734375,0.97955322265625,6.519775390625,1.1663818359375,0.949554443359375,1,1.0,1.0,1.0,1.0,50.00
2022-11-23 20:26:32.144,0.7450918,-0.08934215,-0.22278035,0.5829517,0.5350986,-0.012385447,-0.040600117,0.3797198,0.55861944,0.24710895,0.19693005,0.63273424,0.17782491,-0.05061917,-0.04829802,0.11883174,-0.097608246,-0.47044975,-0.3768212,-0.09445221,784.10254,808.2784,811.9048,803.44324,596.337,-0.25445556640625,-0.0325927734375,0.97955322265625,6.519775390625,1.1663818359375,0.949554443359375,1,1.0,1.0,1.0,1.0,50.00
2022-11-23 20:26:32.144,0.7450918,-0.08934215,-0.22278035,0.5829517,0.5350986,-0.012385447,-0.040600117,0.3797198,0.55861944,0.24710895,0.19693005,0.63273424,0.17782491,-0.05061917,-0.04829802,0.11883174,-0.097608246,-0.47044975,-0.3768212,-0.09445221,816.7399,809.89014,813.91943,827.619,776.04395,-0.25445556640625,-0.0325927734375,0.97955322265625,6.519775390625,1.1663818359375,0.949554443359375,1,1.0,1.0,1.0,1.0,50.00
2022-11-23 20:26:32.144,0.7450918,-0.08934215,-0.22278035,0.5829517,0.5350986,-0.012385447,-0.040600117,0.3797198,0.55861944,0.24710895,0.19693005,0.63273424,0.17782491,-0.05061917,-0.04829802,0.11883174,-0.097608246,-0.47044975,-0.3768212,-0.09445221,835.2747,811.0989,812.3077,831.6484,882.01465,-0.25445556640625,-0.0325927734375,0.97955322265625,6.519775390625,1.1663818359375,0.949554443359375,1,1.0,1.0,1.0,1.0,50.00
2022-11-23 20:26:32.144,0.7450918,-0.08934215,-0.22278035,0.5829517,0.5350986,-0.012385447,-0.040600117,0.3797198,0.55861944,0.24710895,0.19693005,0.63273424,0.17782491,-0.05061917,-0.04829802,0.11883174,-0.097608246,-0.47044975,-0.3768212,-0.09445221,808.68134,806.6667,807.47253,807.0696,774.43225,-0.25445556640625,-0.0325927734375,0.97955322265625,6.519775390625,1.1663818359375,0.949554443359375,1,1.0,1.0,1.0,1.0,50.00
2022-11-23 20:26:32.145,0.7450918,-0.08934215,-0.22278035,0.5829517,0.5350986,-0.012385447,-0.040600117,0.3797198,0.55861944,0.24710895,0.19693005,0.63273424,0.17782491,-0.05061917,-0.04829802,0.11883174,-0.097608246,-0.47044975,-0.3768212,-0.09445221,780.87915,801.4286,809.4872,791.75824,834.87177,-0.25445556640625,-0.0325927734375,0.97955322265625,6.519775390625,1.1663818359375,0.949554443359375,1,1.0,1.0,1.0,1.0,50.00
2022-11-23 20:26:32.145,0.7450918,-0.08934215,-0.22278035,0.5829517,0.5350986,-0.012385447,-0.040600117,0.3797198,0.55861944,0.24710895,0.19693005,0.63273424,0.17782491,-0.05061917,-0.04829802,0.11883174,-0.097608246,-0.47044975,-0.3768212,-0.09445221,803.0403,801.4286,815.12823,813.1135,912.6374,-0.25445556640625,-0.0325927734375,0.97955322265625,6.519775390625,1.1663818359375,0.949554443359375,1,1.0,1.0,1.0,1.0,50.00
2022-11-23 20:26:32.145,0.7450918,-0.08934215,-0.22278035,0.5829517,0.5350986,-0.012385447,-0.040600117,0.3797198,0.55861944,0.24710895,0.19693005,0.63273424,0.17782491,-0.05061917,-0.04829802,0.11883174,-0.097608246,-0.47044975,-0.3768212,-0.09445221,834.0659,802.6374,813.91943,836.4835,800.6227,-0.25445556640625,-0.0325927734375,0.97955322265625,6.519775390625,1.1663818359375,0.949554443359375,1,1.0,1.0,1.0,1.0,50.00
2022-11-23 20:26:32.145,0.7450918,-0.08934215,-0.22278035,0.5829517,0.5350986,-0.012385447,-0.040600117,0.3797198,0.55861944,0.24710895,0.19693005,0.63273424,0.17782491,-0.05061917,-0.04829802,0.11883174,-0.097608246,-0.47044975,-0.3768212,-0.09445221,813.91943,805.4579,808.2784,816.7399,704.7253,-0.25445556640625,-0.0325927734375,0.97955322265625,6.519775390625,1.1663818359375,0.949554443359375,1,1.0,1.0,1.0,1.0,50.00
2022-11-23 20:26:32.146,0.75628674,-0.13101387,-0.15123488,0.57708466,0.5406295,-0.026065573,-0.0059550917,0.39661497,0.4614687,0.24645908,0.19693005,0.63273424,0.18802768,-0.053132202,-0.05420839,0.107187524,-0.10877142,-0.47867262,-0.37632018,-0.09184263,786.1172,807.8755,804.2491,795.78754,614.4689,-0.25445556640625,-0.0325927734375,0.97955322265625,6.519775390625,1.1663818359375,0.949554443359375,1,1.0,1.0,1.0,1.0,50.00
2022-11-23 20:26:32.192,0.75628674,-0.13101387,-0.15123488,0.57708466,0.5406295,-0.026065573,-0.0059550917,0.39661497,0.4614687,0.24645908,0.19693005,0.63273424,0.18802768,-0.053132202,-0.05420839,0.107187524,-0.10877142,-0.47867262,-0.37632018,-0.09184263,804.2491,809.0842,806.26373,813.91943,628.5714,-0.25445556640625,-0.0325927734375,0.97955322265625,6.519775390625,1.1663818359375,0.949554443359375,1,1.0,1.0,1.0,1.0,50.00
2022-11-23 20:26:32.192,0.75628674,-0.13101387,-0.15123488,0.57708466,0.5406295,-0.026065573,-0.0059550917,0.39661497,0.4614687,0.24645908,0.19693005,0.63273424,0.18802768,-0.053132202,-0.05420839,0.107187524,-0.10877142,-0.47867262,-0.37632018,-0.09184263,841.31866,811.0989,807.47253,838.49817,783.2967,-0.25445556640625,-0.0325927734375,0.97955322265625,6.519775390625,1.1663818359375,0.949554443359375,1,1.0,1.0,1.0,1.0,50.00
2022-11-23 20:26:32.193,0.75628674,-0.13101387,-0.15123488,0.57708466,0.5406295,-0.026065573,-0.0059550917,0.39661497,0.4614687,0.24645908,0.19693005,0.63273424,0.18802768,-0.053132202,-0.05420839,0.107187524,-0.10877142,-0.47867262,-0.37632018,-0.09184263,828.4249,809.4872,799.011,819.5604,814.3223,-0.25445556640625,-0.0325927734375,0.97955322265625,6.519775390625,1.1663818359375,0.949554443359375,1,1.0,1.0,1.0,1.0,50.00
2022-11-23 20:26:32.193,0.75628674,-0.13101387,-0.15123488,0.57708466,0.5406295,-0.026065573,-0.0059550917,0.39661497,0.4614687,0.24645908,0.19693005,0.63273424,0.18802768,-0.053132202,-0.05420839,0.107187524,-0.10877142,-0.47867262,-0.37632018,-0.09184263,784.5055,809.4872,793.36993,784.10254,686.1905,-0.25445556640625,-0.0325927734375,0.97955322265625,6.519775390625,1.1663818359375,0.949554443359375,1,1.0,1.0,1.0,1.0,50.00
2022-11-23 20:26:32.193,0.75628674,-0.13101387,-0.15123488,0.57708466,0.5406295,-0.026065573,-0.0059550917,0.39661497,0.4614687,0.24645908,0.19693005,0.63273424,0.18802768,-0.053132202,-0.05420839,0.107187524,-0.10877142,-0.47867262,-0.37632018,-0.09184263,790.9524,811.9048,798.60803,787.326,712.381,-0.25445556640625,-0.0325927734375,0.97955322265625,6.519775390625,1.1663818359375,0.949554443359375,1,1.0,1.0,1.0,1.0,50.00
2022-11-23 20:26:32.194,0.75628674,-0.13101387,-0.15123488,0.57708466,0.5406295,-0.026065573,-0.0059550917,0.39661497,0.4614687,0.24645908,0.19693005,0.63273424,0.18802768,-0.053132202,-0.05420839,0.107187524,-0.10877142,-0.47867262,-0.37632018,-0.09184263,832.4542,813.5165,801.4286,815.9341,882.4176,-0.25445556640625,-0.0325927734375,0.97955322265625,6.519775390625,1.1663818359375,0.949554443359375,1,1.0,1.0,1.0,1.0,50.00
2022-11-23 20:26:32.194,0.75628674,-0.13101387,-0.15123488,0.57708466,0.5406295,-0.026065573,-0.0059550917,0.39661497,0.4614687,0.24645908,0.19693005,0.63273424,0.18802768,-0.053132202,-0.05420839,0.107187524,-0.10877142,-0.47867262,-0.37632018,-0.09184263,841.7216,811.9048,802.23444,819.15753,1037.5458,-0.25445556640625,-0.0325927734375,0.97955322265625,6.519775390625,1.1663818359375,0.949554443359375,1,1.0,1.0,1.0,1.0,50.00
2022-11-23 20:26:32.194,0.75628674,-0.13101387,-0.15123488,0.57708466,0.5406295,-0.026065573,-0.0059550917,0.39661497,0.4614687,0.24645908,0.19693005,0.63273424,0.18802768,-0.053132202,-0.05420839,0.107187524,-0.10877142,-0.47867262,-0.37632018,-0.09184263,805.8608,806.6667,800.2198,798.20514,1053.2601,-0.25445556640625,-0.0325927734375,0.97955322265625,6.519775390625,1.1663818359375,0.949554443359375,1,1.0,1.0,1.0,1.0,50.00
2022-11-23 20:26:32.195,0.75628674,-0.13101387,-0.15123488,0.57708466,0.5406295,-0.026065573,-0.0059550917,0.39661497,0.4614687,0.24645908,0.19693005,0.63273424,0.18802768,-0.053132202,-0.05420839,0.107187524,-0.10877142,-0.47867262,-0.37632018,-0.09184263,787.72894,807.0696,804.2491,799.81683,740.989,-0.25445556640625,-0.0325927734375,0.97955322265625,6.519775390625,1.1663818359375,0.949554443359375,1,1.0,1.0,1.0,1.0,50.00
2022-11-23 20:26:32.195,0.75628674,-0.13101387,-0.15123488,0.57708466,0.5406295,-0.026065573,-0.0059550917,0.39661497,0.4614687,0.24645908,0.19693005,0.63273424,0.18802768,-0.053132202,-0.05420839,0.107187524,-0.10877142,-0.47867262,-0.37632018,-0.09184263,815.9341,805.8608,805.8608,822.7839,664.83514,-0.25445556640625,-0.0325927734375,0.97955322265625,6.519775390625,1.1663818359375,0.949554443359375,1,1.0,1.0,1.0,1.0,50.00
2022-11-23 20:26:32.196,0.75628674,-0.13101387,-0.15123488,0.57708466,0.5406295,-0.026065573,-0.0059550917,0.39661497,0.4614687,0.24645908,0.19693005,0.63273424,0.18802768,-0.053132202,-0.05420839,0.107187524,-0.10877142,-0.47867262,-0.37632018,-0.09184263,836.4835,800.2198,803.0403,829.6337,835.2747,-0.25445556640625,-0.0325927734375,0.97955322265625,6.519775390625,1.1663818359375,0.949554443359375,1,1.0,1.0,1.0,1.0,50.00
2022-11-23 20:26:32.196,0.75628674,-0.13101387,-0.15123488,0.57708466,0.5406295,-0.026065573,-0.0059550917,0.39661497,0.4614687,0.24645908,0.19693005,0.63273424,0.18802768,-0.053132202,-0.05420839,0.107187524,-0.10877142,-0.47867262,-0.37632018,-0.09184263,808.68134,798.20514,802.6374,808.2784,724.87177,-0.25445556640625,-0.0325927734375,0.97955322265625,6.519775390625,1.1663818359375,0.949554443359375,1,1.0,1.0,1.0,1.0,50.00
2022-11-23 20:26:32.267,0.75628674,-0.13101387,-0.15123488,0.57708466,0.5406295,-0.026065573,-0.0059550917,0.39661497,0.4614687,0.24645908,0.19693005,0.63273424,0.18802768,-0.053132202,-0.05420839,0.107187524,-0.10877142,-0.47867262,-0.37632018,-0.09184263,780.4762,802.23444,801.8315,794.9817,553.6264,-0.2589111328125,-0.01910400390625,0.98663330078125,6.74407958984375,0.3887939453125,0.426177978515625,1,1.0,1.0,1.0,1.0,50.00
2022-11-23 20:26:32.267,0.75628674,-0.13101387,-0.15123488,0.57708466,0.5406295,-0.026065573,-0.0059550917,0.39661497,0.4614687,0.24645908,0.19693005,0.63273424,0.18802768,-0.053132202,-0.05420839,0.107187524,-0.10877142,-0.47867262,-0.37632018,-0.09184263,806.6667,804.65204,805.05493,811.50183,637.03296,-0.2589111328125,-0.01910400390625,0.98663330078125,6.74407958984375,0.3887939453125,0.426177978515625,1,1.0,1.0,1.0,1.0,50.00
2022-11-23 20:26:32.268,0.75628674,-0.13101387,-0.15123488,0.57708466,0.5406295,-0.026065573,-0.0059550917,0.39661497,0.4614687,0.24645908,0.19693005,0.63273424,0.18802768,-0.053132202,-0.05420839,0.107187524,-0.10877142,-0.47867262,-0.37632018,-0.09184263,837.28937,805.8608,805.8608,828.4249,830.4396,-0.2589111328125,-0.01910400390625,0.98663330078125,6.74407958984375,0.3887939453125,0.426177978515625,1,1.0,1.0,1.0,1.0,50.00
2022-11-23 20:26:32.268,0.75628674,-0.13101387,-0.15123488,0.57708466,0.5406295,-0.026065573,-0.0059550917,0.39661497,0.4614687,0.24645908,0.19693005,0.63273424,0.18802768,-0.053132202,-0.05420839,0.107187524,-0.10877142,-0.47867262,-0.37632018,-0.09184263,815.12823,807.0696,801.4286,808.68134,804.65204,-0.2589111328125,-0.01910400390625,0.98663330078125,6.74407958984375,0.3887939453125,0.426177978515625,1,1.0,1.0,1.0,1.0,50.00
2022-11-23 20:26:32.268,0.75628674,-0.13101387,-0.15123488,0.57708466,0.5406295,-0.026065573,-0.0059550917,0.39661497,0.4614687,0.24645908,0.19693005,0.63273424,0.18802768,-0.053132202,-0.05420839,0.107187524,-0.10877142,-0.47867262,-0.37632018,-0.09184263,777.6557,802.6374,795.38464,782.49084,623.73627,-0.2589111328125,-0.01910400390625,0.98663330078125,6.74407958984375,0.3887939453125,0.426177978515625,1,1.0,1.0,1.0,1.0,50.00
2022-11-23 20:26:32.269,0.75628674,-0.13101387,-0.15123488,0.57708466,0.5406295,-0.026065573,-0.0059550917,0.39661497,0.4614687,0.24645908,0.19693005,0.63273424,0.18802768,-0.053132202,-0.05420839,0.107187524,-0.10877142,-0.47867262,-0.37632018,-0.09184263,782.49084,799.41394,798.20514,790.9524,677.72894,-0.2589111328125,-0.01910400390625,0.98663330078125,6.74407958984375,0.3887939453125,0.426177978515625,1,1.0,1.0,1.0,1.0,50.00
2022-11-23 20:26:32.269,0.75628674,-0.13101387,-0.15123488,0.57708466,0.5406295,-0.026065573,-0.0059550917,0.39661497,0.4614687,0.24645908,0.19693005,0.63273424,0.18802768,-0.053132202,-0.05420839,0.107187524,-0.10877142,-0.47867262,-0.37632018,-0.09184263,815.12823,803.0403,805.4579,821.1722,1214.4323,-0.2589111328125,-0.01910400390625,0.98663330078125,6.74407958984375,0.3887939453125,0.426177978515625,1,1.0,1.0,1.0,1.0,50.00
2022-11-23 20:26:32.269,0.75628674,-0.13101387,-0.15123488,0.57708466,0.5406295,-0.026065573,-0.0059550917,0.39661497,0.4614687,0.24645908,0.19693005,0.63273424,0.18802768,-0.053132202,-0.05420839,0.107187524,-0.10877142,-0.47867262,-0.37632018,-0.09184263,818.3516,805.4579,805.05493,817.1429,1242.2344,-0.2589111328125,-0.01910400390625,0.98663330078125,6.74407958984375,0.3887939453125,0.426177978515625,1,1.0,1.0,1.0,1.0,50.00
2022-11-23 20:26:32.269,0.75628674,-0.13101387,-0.15123488,0.57708466,0.5406295,-0.026065573,-0.0059550917,0.39661497,0.4614687,0.24645908,0.19693005,0.63273424,0.18802768,-0.053132202,-0.05420839,0.107187524,-0.10877142,-0.47867262,-0.37632018,-0.09184263,786.9231,799.41394,804.65204,788.93774,675.31134,-0.2589111328125,-0.01910400390625,0.98663330078125,6.74407958984375,0.3887939453125,0.426177978515625,1,1.0,1.0,1.0,1.0,50.00
2022-11-23 20:26:32.270,0.75628674,-0.13101387,-0.15123488,0.57708466,0.5406295,-0.026065573,-0.0059550917,0.39661497,0.4614687,0.24645908,0.19693005,0.63273424,0.18802768,-0.053132202,-0.05420839,0.107187524,-0.10877142,-0.47867262,-0.37632018,-0.09184263,779.2674,800.6227,805.05493,794.57874,587.47253,-0.2589111328125,-0.01910400390625,0.98663330078125,6.74407958984375,0.3887939453125,0.426177978515625,1,1.0,1.0,1.0,1.0,50.00
2022-11-23 20:26:32.270,0.75628674,-0.13101387,-0.15123488,0.57708466,0.5406295,-0.026065573,-0.0059550917,0.39661497,0.4614687,0.24645908,0.19693005,0.63273424,0.18802768,-0.053132202,-0.05420839,0.107187524,-0.10877142,-0.47867262,-0.37632018,-0.09184263,813.5165,804.2491,803.44324,823.1868,856.63007,-0.2589111328125,-0.01910400390625,0.98663330078125,6.74407958984375,0.3887939453125,0.426177978515625,1,1.0,1.0,1.0,1.0,50.00
2022-11-23 20:26:32.270,0.75628674,-0.13101387,-0.15123488,0.57708466,0.5406295,-0.026065573,-0.0059550917,0.39661497,0.4614687,0.24645908,0.19693005,0.63273424,0.18802768,-0.053132202,-0.05420839,0.107187524,-0.10877142,-0.47867262,-0.37632018,-0.09184263,826.0073,801.4286,803.0403,826.0073,876.3736,-0.2589111328125,-0.01910400390625,0.98663330078125,6.74407958984375,0.3887939453125,0.426177978515625,1,1.0,1.0,1.0,1.0,50.00
2022-11-23 20:26:32.292,0.75628674,-0.13101387,-0.15123488,0.57708466,0.5406295,-0.026065573,-0.0059550917,0.39661497,0.4614687,0.24645908,0.19693005,0.63273424,0.18802768,-0.053132202,-0.05420839,0.107187524,-0.10877142,-0.47867262,-0.37632018,-0.09184263,793.7729,804.2491,799.81683,794.9817,765.16486,-0.26116943359375,-0.02490234375,0.98944091796875,4.9346923828125,0.949554443359375,-0.859832763671875,1,1.0,1.0,1.0,1.0,50.00
2022-11-23 20:26:32.293,0.7602272,-0.16029672,-0.047466878,0.54084355,0.5430602,-0.039050154,0.044674885,0.41992703,0.35436496,0.24386904,0.19693005,0.63139707,0.20067623,-0.057541437,-0.052834064,0.10041567,-0.11541623,-0.4824136,-0.37710977,-0.112775706,772.4176,803.44324,801.02563,784.10254,735.7509,-0.26116943359375,-0.02490234375,0.98944091796875,4.9346923828125,0.949554443359375,-0.859832763671875,1,1.0,1.0,1.0,1.0,50.00
2022-11-23 20:26:32.294,0.7602272,-0.16029672,-0.047466878,0.54084355,0.5430602,-0.039050154,0.044674885,0.41992703,0.35436496,0.24386904,0.19693005,0.63139707,0.20067623,-0.057541437,-0.052834064,0.10041567,-0.11541623,-0.4824136,-0.37710977,-0.112775706,802.6374,796.5934,801.02563,810.696,805.4579,-0.26116943359375,-0.02490234375,0.98944091796875,4.9346923828125,0.949554443359375,-0.859832763671875,1,1.0,1.0,1.0,1.0,50.00
2022-11-23 20:26:32.295,0.7602272,-0.16029672,-0.047466878,0.54084355,0.5430602,-0.039050154,0.044674885,0.41992703,0.35436496,0.24386904,0.19693005,0.63139707,0.20067623,-0.057541437,-0.052834064,0.10041567,-0.11541623,-0.4824136,-0.37710977,-0.112775706,830.0366,795.38464,793.7729,826.0073,880.0,-0.26116943359375,-0.02490234375,0.98944091796875,4.9346923828125,0.949554443359375,-0.859832763671875,1,1.0,1.0,1.0,1.0,50.00
2022-11-23 20:26:32.295,0.7602272,-0.16029672,-0.047466878,0.54084355,0.5430602,-0.039050154,0.044674885,0.41992703,0.35436496,0.24386904,0.19693005,0.63139707,0.20067623,-0.057541437,-0.052834064,0.10041567,-0.11541623,-0.4824136,-0.37710977,-0.112775706,801.4286,796.1905,793.7729,800.2198,722.0513,-0.26116943359375,-0.02490234375,0.98944091796875,4.9346923828125,0.949554443359375,-0.859832763671875,1,1.0,1.0,1.0,1.0,50.00
2022-11-23 20:26:32.295,0.7602272,-0.16029672,-0.047466878,0.54084355,0.5430602,-0.039050154,0.044674885,0.41992703,0.35436496,0.24386904,0.19693005,0.63139707,0.20067623,-0.057541437,-0.052834064,0.10041567,-0.11541623,-0.4824136,-0.37710977,-0.112775706,771.2088,796.99634,794.17584,781.685,664.83514,-0.26116943359375,-0.02490234375,0.98944091796875,4.9346923828125,0.949554443359375,-0.859832763671875,1,1.0,1.0,1.0,1.0,50.00
2022-11-23 20:26:32.295,0.7602272,-0.16029672,-0.047466878,0.54084355,0.5430602,-0.039050154,0.044674885,0.41992703,0.35436496,0.24386904,0.19693005,0.63139707,0.20067623,-0.057541437,-0.052834064,0.10041567,-0.11541623,-0.4824136,-0.37710977,-0.112775706,798.60803,802.6374,796.5934,803.0403,829.6337,-0.26116943359375,-0.02490234375,0.98944091796875,4.9346923828125,0.949554443359375,-0.859832763671875,1,1.0,1.0,1.0,1.0,50.00
2022-11-23 20:26:32.296,0.7602272,-0.16029672,-0.047466878,0.54084355,0.5430602,-0.039050154,0.044674885,0.41992703,0.35436496,0.24386904,0.19693005,0.63139707,0.20067623,-0.057541437,-0.052834064,0.10041567,-0.11541623,-0.4824136,-0.37710977,-0.112775706,836.8865,803.0403,802.6374,825.6044,902.1612,-0.26116943359375,-0.02490234375,0.98944091796875,4.9346923828125,0.949554443359375,-0.859832763671875,1,1.0,1.0,1.0,1.0,50.00
2022-11-23 20:26:32.296,0.7602272,-0.16029672,-0.047466878,0.54084355,0.5430602,-0.039050154,0.044674885,0.41992703,0.35436496,0.24386904,0.19693005,0.63139707,0.20067623,-0.057541437,-0.052834064,0.10041567,-0.11541623,-0.4824136,-0.37710977,-0.112775706,819.5604,798.60803,799.41394,809.4872,790.54944,-0.26116943359375,-0.02490234375,0.98944091796875,4.9346923828125,0.949554443359375,-0.859832763671875,1,1.0,1.0,1.0,1.0,50.00
2022-11-23 20:26:32.296,0.7602272,-0.16029672,-0.047466878,0.54084355,0.5430602,-0.039050154,0.044674885,0.41992703,0.35436496,0.24386904,0.19693005,0.63139707,0.20067623,-0.057541437,-0.052834064,0.10041567,-0.11541623,-0.4824136,-0.37710977,-0.112775706,778.0586,803.0403,799.011,788.1319,807.8755,-0.26116943359375,-0.02490234375,0.98944091796875,4.9346923828125,0.949554443359375,-0.859832763671875,1,1.0,1.0,1.0,1.0,50.00
2022-11-23 20:26:32.296,0.7602272,-0.16029672,-0.047466878,0.54084355,0.5430602,-0.039050154,0.044674885,0.41992703,0.35436496,0.24386904,0.19693005,0.63139707,0.20067623,-0.057541437,-0.052834064,0.10041567,-0.11541623,-0.4824136,-0.37710977,-0.112775706,782.0879,806.26373,799.81683,795.78754,974.68866,-0.26116943359375,-0.02490234375,0.98944091796875,4.9346923828125,0.949554443359375,-0.859832763671875,1,1.0,1.0,1.0,1.0,50.00
2022-11-23 20:26:32.297,0.7602272,-0.16029672,-0.047466878,0.54084355,0.5430602,-0.039050154,0.044674885,0.41992703,0.35436496,0.24386904,0.19693005,0.63139707,0.20067623,-0.057541437,-0.052834064,0.10041567,-0.11541623,-0.4824136,-0.37710977,-0.112775706,821.5751,805.05493,799.81683,815.5311,859.85345,-0.26116943359375,-0.02490234375,0.98944091796875,4.9346923828125,0.949554443359375,-0.859832763671875,1,1.0,1.0,1.0,1.0,50.00
2022-11-23 20:26:32.342,0.7602272,-0.16029672,-0.047466878,0.54084355,0.5430602,-0.039050154,0.044674885,0.41992703,0.35436496,0.24386904,0.19693005,0.63139707,0.20067623,-0.057541437,-0.052834064,0.10041567,-0.11541623,-0.4824136,-0.37710977,-0.112775706,822.7839,805.8608,799.81683,813.1135,772.01465,-0.2513427734375,-0.01544189453125,0.985595703125,4.702911376953125,-0.19439697265625,-1.07666015625,1,1.0,1.0,1.0,1.0,50.00
2022-11-23 20:26:32.343,0.7602272,-0.16029672,-0.047466878,0.54084355,0.5430602,-0.039050154,0.044674885,0.41992703,0.35436496,0.24386904,0.19693005,0.63139707,0.20067623,-0.057541437,-0.052834064,0.10041567,-0.11541623,-0.4824136,-0.37710977,-0.112775706,782.8938,805.05493,804.65204,786.52014,778.0586,-0.2513427734375,-0.01544189453125,0.985595703125,4.702911376953125,-0.19439697265625,-1.07666015625,1,1.0,1.0,1.0,1.0,50.00
2022-11-23 20:26:32.343,0.7602272,-0.16029672,-0.047466878,0.54084355,0.5430602,-0.039050154,0.044674885,0.41992703,0.35436496,0.24386904,0.19693005,0.63139707,0.20067623,-0.057541437,-0.052834064,0.10041567,-0.11541623,-0.4824136,-0.37710977,-0.112775706,771.6117,804.65204,806.6667,784.10254,775.64105,-0.2513427734375,-0.01544189453125,0.985595703125,4.702911376953125,-0.19439697265625,-1.07666015625,1,1.0,1.0,1.0,1.0,50.00
2022-11-23 20:26:32.343,0.7602272,-0.16029672,-0.047466878,0.54084355,0.5430602,-0.039050154,0.044674885,0.41992703,0.35436496,0.24386904,0.19693005,0.63139707,0.20067623,-0.057541437,-0.052834064,0.10041567,-0.11541623,-0.4824136,-0.37710977,-0.112775706,809.4872,806.6667,804.65204,808.68134,792.96704,-0.2513427734375,-0.01544189453125,0.985595703125,4.702911376953125,-0.19439697265625,-1.07666015625,1,1.0,1.0,1.0,1.0,50.00
2022-11-23 20:26:32.344,0.7602272,-0.16029672,-0.047466878,0.54084355,0.5430602,-0.039050154,0.044674885,0.41992703,0.35436496,0.24386904,0.19693005,0.63139707,0.20067623,-0.057541437,-0.052834064,0.10041567,-0.11541623,-0.4824136,-0.37710977,-0.112775706,823.9927,804.2491,801.4286,813.91943,855.42126,-0.2513427734375,-0.01544189453125,0.985595703125,4.702911376953125,-0.19439697265625,-1.07666015625,1,1.0,1.0,1.0,1.0,50.00
2022-11-23 20:26:32.344,0.7602272,-0.16029672,-0.047466878,0.54084355,0.5430602,-0.039050154,0.044674885,0.41992703,0.35436496,0.24386904,0.19693005,0.63139707,0.20067623,-0.057541437,-0.052834064,0.10041567,-0.11541623,-0.4824136,-0.37710977,-0.112775706,784.10254,803.8461,794.57874,783.69965,906.99634,-0.2513427734375,-0.01544189453125,0.985595703125,4.702911376953125,-0.19439697265625,-1.07666015625,1,1.0,1.0,1.0,1.0,50.00
2022-11-23 20:26:32.344,0.7602272,-0.16029672,-0.047466878,0.54084355,0.5430602,-0.039050154,0.044674885,0.41992703,0.35436496,0.24386904,0.19693005,0.63139707,0.20067623,-0.057541437,-0.052834064,0.10041567,-0.11541623,-0.4824136,-0.37710977,-0.112775706,763.1502,805.8608,791.3553,773.22345,837.6923,-0.2513427734375,-0.01544189453125,0.985595703125,4.702911376953125,-0.19439697265625,-1.07666015625,1,1.0,1.0,1.0,1.0,50.00
2022-11-23 20:26:32.344,0.7602272,-0.16029672,-0.047466878,0.54084355,0.5430602,-0.039050154,0.044674885,0.41992703,0.35436496,0.24386904,0.19693005,0.63139707,0.20067623,-0.057541437,-0.052834064,0.10041567,-0.11541623,-0.4824136,-0.37710977,-0.112775706,792.96704,804.65204,793.7729,798.60803,846.9597,-0.2513427734375,-0.01544189453125,0.985595703125,4.702911376953125,-0.19439697265625,-1.07666015625,1,1.0,1.0,1.0,1.0,50.00
2022-11-23 20:26:32.345,0.7602272,-0.16029672,-0.047466878,0.54084355,0.5430602,-0.039050154,0.044674885,0.41992703,0.35436496,0.24386904,0.19693005,0.63139707,0.20067623,-0.057541437,-0.052834064,0.10041567,-0.11541623,-0.4824136,-0.37710977,-0.112775706,817.1429,804.65204,796.1905,813.1135,893.69965,-0.2513427734375,-0.01544189453125,0.985595703125,4.702911376953125,-0.19439697265625,-1.07666015625,1,1.0,1.0,1.0,1.0,50.00
2022-11-23 20:26:32.345,0.7602272,-0.16029672,-0.047466878,0.54084355,0.5430602,-0.039050154,0.044674885,0.41992703,0.35436496,0.24386904,0.19693005,0.63139707,0.20067623,-0.057541437,-0.052834064,0.10041567,-0.11541623,-0.4824136,-0.37710977,-0.112775706,793.7729,807.0696,797.3993,799.81683,941.2454,-0.2513427734375,-0.01544189453125,0.985595703125,4.702911376953125,-0.19439697265625,-1.07666015625,1,1.0,1.0,1.0,1.0,50.00
2022-11-23 20:26:32.345,0.7602272,-0.16029672,-0.047466878,0.54084355,0.5430602,-0.039050154,0.044674885,0.41992703,0.35436496,0.24386904,0.19693005,0.63139707,0.20067623,-0.057541437,-0.052834064,0.10041567,-0.11541623,-0.4824136,-0.37710977,-0.112775706,763.1502,810.696,801.8315,778.46155,787.72894,-0.2513427734375,-0.01544189453125,0.985595703125,4.702911376953125,-0.19439697265625,-1.07666015625,1,1.0,1.0,1.0,1.0,50.00
2022-11-23 20:26:32.345,0.7602272,-0.16029672,-0.047466878,0.54084355,0.5430602,-0.039050154,0.044674885,0.41992703,0.35436496,0.24386904,0.19693005,0.63139707,0.20067623,-0.057541437,-0.052834064,0.10041567,-0.11541623,-0.4824136,-0.37710977,-0.112775706,787.72894,811.0989,803.44324,788.1319,594.7253,-0.2513427734375,-0.01544189453125,0.985595703125,4.702911376953125,-0.19439697265625,-1.07666015625,1,1.0,1.0,1.0,1.0,50.00
2022-11-23 20:26:32.392,0.7602272,-0.16029672,-0.047466878,0.54084355,0.5430602,-0.039050154,0.044674885,0.41992703,0.35436496,0.24386904,0.19693005,0.63139707,0.20067623,-0.057541437,-0.052834064,0.10041567,-0.11541623,-0.4824136,-0.37710977,-0.112775706,828.8278,806.26373,800.6227,813.5165,861.4652,-0.254638671875,-0.01519775390625,0.99285888671875,4.448699951171875,-0.28411865234375,-0.76263427734375,1,1.0,1.0,1.0,1.0,50.00
2022-11-23 20:26:32.393,0.7602272,-0.16029672,-0.047466878,0.54084355,0.5430602,-0.039050154,0.044674885,0.41992703,0.35436496,0.24386904,0.19693005,0.63139707,0.20067623,-0.057541437,-0.052834064,0.10041567,-0.11541623,-0.4824136,-0.37710977,-0.112775706,815.12823,801.8315,796.99634,801.8315,963.00366,-0.254638671875,-0.01519775390625,0.99285888671875,4.448699951171875,-0.28411865234375,-0.76263427734375,1,1.0,1.0,1.0,1.0,50.00
2022-11-23 20:26:32.393,0.7602272,-0.16029672,-0.047466878,0.54084355,0.5430602,-0.039050154,0.044674885,0.41992703,0.35436496,0.24386904,0.19693005,0.63139707,0.20067623,-0.057541437,-0.052834064,0.10041567,-0.11541623,-0.4824136,-0.37710977,-0.112775706,774.0293,803.0403,799.011,777.6557,786.52014,-0.254638671875,-0.01519775390625,0.99285888671875,4.448699951171875,-0.28411865234375,-0.76263427734375,1,1.0,1.0,1.0,1.0,50.00
2022-11-23 20:26:32.393,0.75012344,-0.17437991,0.042398468,0.4210011,0.54400516,-0.053236615,0.08837488,0.45321375,0.28506753,0.23601215,0.22681409,0.5768428,0.21144104,-0.05392637,-0.034484867,0.09381102,-0.11486348,-0.47974896,-0.37274343,-0.1728431,774.83514,805.05493,804.65204,787.326,742.1978,-0.254638671875,-0.01519775390625,0.99285888671875,4.448699951171875,-0.28411865234375,-0.76263427734375,1,1.0,1.0,1.0,1.0,50.00
2022-11-23 20:26:32.395,0.75012344,-0.17437991,0.042398468,0.4210011,0.54400516,-0.053236615,0.08837488,0.45321375,0.28506753,0.23601215,0.22681409,0.5768428,0.21144104,-0.05392637,-0.034484867,0.09381102,-0.11486348,-0.47974896,-0.37274343,-0.1728431,807.8755,802.23444,805.05493,811.9048,900.14655,-0.254638671875,-0.01519775390625,0.99285888671875,4.448699951171875,-0.28411865234375,-0.76263427734375,1,1.0,1.0,1.0,1.0,50.00
2022-11-23 20:26:32.395,0.75012344,-0.17437991,0.042398468,0.4210011,0.54400516,-0.053236615,0.08837488,0.45321375,0.28506753,0.23601215,0.22681409,0.5768428,0.21144104,-0.05392637,-0.034484867,0.09381102,-0.11486348,-0.47974896,-0.37274343,-0.1728431,809.0842,803.44324,803.8461,806.6667,939.6337,-0.254638671875,-0.01519775390625,0.99285888671875,4.448699951171875,-0.28411865234375,-0.76263427734375,1,1.0,1.0,1.0,1.0,50.00
2022-11-23 20:26:32.395,0.75012344,-0.17437991,0.042398468,0.4210011,0.54400516,-0.053236615,0.08837488,0.45321375,0.28506753,0.23601215,0.22681409,0.5768428,0.21144104,-0.05392637,-0.034484867,0.09381102,-0.11486348,-0.47974896,-0.37274343,-0.1728431,774.0293,805.05493,803.44324,777.6557,732.9304,-0.254638671875,-0.01519775390625,0.99285888671875,4.448699951171875,-0.28411865234375,-0.76263427734375,1,1.0,1.0,1.0,1.0,50.00
2022-11-23 20:26:32.395,0.75012344,-0.17437991,0.042398468,0.4210011,0.54400516,-0.053236615,0.08837488,0.45321375,0.28506753,0.23601215,0.22681409,0.5768428,0.21144104,-0.05392637,-0.034484867,0.09381102,-0.11486348,-0.47974896,-0.37274343,-0.1728431,764.35895,802.6374,803.44324,787.326,563.2967,-0.254638671875,-0.01519775390625,0.99285888671875,4.448699951171875,-0.28411865234375,-0.76263427734375,1,1.0,1.0,1.0,1.0,50.00
2022-11-23 20:26:32.395,0.75012344,-0.17437991,0.042398468,0.4210011,0.54400516,-0.053236615,0.08837488,0.45321375,0.28506753,0.23601215,0.22681409,0.5768428,0.21144104,-0.05392637,-0.034484867,0.09381102,-0.11486348,-0.47974896,-0.37274343,-0.1728431,799.81683,804.65204,806.6667,821.1722,801.02563,-0.254638671875,-0.01519775390625,0.99285888671875,4.448699951171875,-0.28411865234375,-0.76263427734375,1,1.0,1.0,1.0,1.0,50.00
2022-11-23 20:26:32.396,0.75012344,-0.17437991,0.042398468,0.4210011,0.54400516,-0.053236615,0.08837488,0.45321375,0.28506753,0.23601215,0.22681409,0.5768428,0.21144104,-0.05392637,-0.034484867,0.09381102,-0.11486348,-0.47974896,-0.37274343,-0.1728431,819.5604,802.6374,806.26373,823.9927,1079.0476,-0.254638671875,-0.01519775390625,0.99285888671875,4.448699951171875,-0.28411865234375,-0.76263427734375,1,1.0,1.0,1.0,1.0,50.00
2022-11-23 20:26:32.396,0.75012344,-0.17437991,0.042398468,0.4210011,0.54400516,-0.053236615,0.08837488,0.45321375,0.28506753,0.23601215,0.22681409,0.5768428,0.21144104,-0.05392637,-0.034484867,0.09381102,-0.11486348,-0.47974896,-0.37274343,-0.1728431,790.9524,802.6374,803.44324,795.38464,745.42126,-0.254638671875,-0.01519775390625,0.99285888671875,4.448699951171875,-0.28411865234375,-0.76263427734375,1,1.0,1.0,1.0,1.0,50.00
2022-11-23 20:26:32.396,0.75012344,-0.17437991,0.042398468,0.4210011,0.54400516,-0.053236615,0.08837488,0.45321375,0.28506753,0.23601215,0.22681409,0.5768428,0.21144104,-0.05392637,-0.034484867,0.09381102,-0.11486348,-0.47974896,-0.37274343,-0.1728431,768.7912,803.8461,805.05493,786.52014,548.7912,-0.254638671875,-0.01519775390625,0.99285888671875,4.448699951171875,-0.28411865234375,-0.76263427734375,1,1.0,1.0,1.0,1.0,50.00
2022-11-23 20:26:32.467,0.75012344,-0.17437991,0.042398468,0.4210011,0.54400516,-0.053236615,0.08837488,0.45321375,0.28506753,0.23601215,0.22681409,0.5768428,0.21144104,-0.05392637,-0.034484867,0.09381102,-0.11486348,-0.47974896,-0.37274343,-0.1728431,796.99634,802.23444,811.50183,811.0989,827.2161,-0.254638671875,-0.01519775390625,0.99285888671875,4.448699951171875,-0.28411865234375,-0.76263427734375,1,1.0,1.0,1.0,1.0,50.00
2022-11-23 20:26:32.468,0.75012344,-0.17437991,0.042398468,0.4210011,0.54400516,-0.053236615,0.08837488,0.45321375,0.28506753,0.23601215,0.22681409,0.5768428,0.21144104,-0.05392637,-0.034484867,0.09381102,-0.11486348,-0.47974896,-0.37274343,-0.1728431,825.6044,805.05493,811.50183,830.0366,1042.7839,-0.254638671875,-0.01519775390625,0.99285888671875,4.448699951171875,-0.28411865234375,-0.76263427734375,1,1.0,1.0,1.0,1.0,50.00
2022-11-23 20:26:32.468,0.75012344,-0.17437991,0.042398468,0.4210011,0.54400516,-0.053236615,0.08837488,0.45321375,0.28506753,0.23601215,0.22681409,0.5768428,0.21144104,-0.05392637,-0.034484867,0.09381102,-0.11486348,-0.47974896,-0.37274343,-0.1728431,804.2491,805.4579,807.8755,813.91943,868.315,-0.254638671875,-0.01519775390625,0.99285888671875,4.448699951171875,-0.28411865234375,-0.76263427734375,1,1.0,1.0,1.0,1.0,50.00
2022-11-23 20:26:32.468,0.75012344,-0.17437991,0.042398468,0.4210011,0.54400516,-0.053236615,0.08837488,0.45321375,0.28506753,0.23601215,0.22681409,0.5768428,0.21144104,-0.05392637,-0.034484867,0.09381102,-0.11486348,-0.47974896,-0.37274343,-0.1728431,773.22345,804.2491,807.47253,786.52014,674.5055,-0.254638671875,-0.01519775390625,0.99285888671875,4.448699951171875,-0.28411865234375,-0.76263427734375,1,1.0,1.0,1.0,1.0,50.00
2022-11-23 20:26:32.468,0.75012344,-0.17437991,0.042398468,0.4210011,0.54400516,-0.053236615,0.08837488,0.45321375,0.28506753,0.23601215,0.22681409,0.5768428,0.21144104,-0.05392637,-0.034484867,0.09381102,-0.11486348,-0.47974896,-0.37274343,-0.1728431,790.54944,803.44324,809.0842,795.78754,819.15753,-0.254638671875,-0.01519775390625,0.99285888671875,4.448699951171875,-0.28411865234375,-0.76263427734375,1,1.0,1.0,1.0,1.0,50.00
2022-11-23 20:26:32.469,0.75012344,-0.17437991,0.042398468,0.4210011,0.54400516,-0.053236615,0.08837488,0.45321375,0.28506753,0.23601215,0.22681409,0.5768428,0.21144104,-0.05392637,-0.034484867,0.09381102,-0.11486348,-0.47974896,-0.37274343,-0.1728431,826.4103,801.8315,806.6667,818.3516,997.25275,-0.254638671875,-0.01519775390625,0.99285888671875,4.448699951171875,-0.28411865234375,-0.76263427734375,1,1.0,1.0,1.0,1.0,50.00
2022-11-23 20:26:32.469,0.75012344,-0.17437991,0.042398468,0.4210011,0.54400516,-0.053236615,0.08837488,0.45321375,0.28506753,0.23601215,0.22681409,0.5768428,0.21144104,-0.05392637,-0.034484867,0.09381102,-0.11486348,-0.47974896,-0.37274343,-0.1728431,814.3223,803.44324,804.65204,808.68134,980.7326,-0.254638671875,-0.01519775390625,0.99285888671875,4.448699951171875,-0.28411865234375,-0.76263427734375,1,1.0,1.0,1.0,1.0,50.00
2022-11-23 20:26:32.469,0.75012344,-0.17437991,0.042398468,0.4210011,0.54400516,-0.053236615,0.08837488,0.45321375,0.28506753,0.23601215,0.22681409,0.5768428,0.21144104,-0.05392637,-0.034484867,0.09381102,-0.11486348,-0.47974896,-0.37274343,-0.1728431,778.0586,809.89014,799.011,784.10254,734.94507,-0.254638671875,-0.01519775390625,0.99285888671875,4.448699951171875,-0.28411865234375,-0.76263427734375,1,1.0,1.0,1.0,1.0,50.00
2022-11-23 20:26:32.469,0.75012344,-0.17437991,0.042398468,0.4210011,0.54400516,-0.053236615,0.08837488,0.45321375,0.28506753,0.23601215,0.22681409,0.5768428,0.21144104,-0.05392637,-0.034484867,0.09381102,-0.11486348,-0.47974896,-0.37274343,-0.1728431,782.0879,809.4872,797.8022,796.1905,820.7692,-0.254638671875,-0.01519775390625,0.99285888671875,4.448699951171875,-0.28411865234375,-0.76263427734375,1,1.0,1.0,1.0,1.0,50.00
2022-11-23 20:26:32.470,0.75012344,-0.17437991,0.042398468,0.4210011,0.54400516,-0.053236615,0.08837488,0.45321375,0.28506753,0.23601215,0.22681409,0.5768428,0.21144104,-0.05392637,-0.034484867,0.09381102,-0.11486348,-0.47974896,-0.37274343,-0.1728431,824.3956,807.0696,804.65204,825.2015,994.43225,-0.254638671875,-0.01519775390625,0.99285888671875,4.448699951171875,-0.28411865234375,-0.76263427734375,1,1.0,1.0,1.0,1.0,50.00
2022-11-23 20:26:32.470,0.75012344,-0.17437991,0.042398468,0.4210011,0.54400516,-0.053236615,0.08837488,0.45321375,0.28506753,0.23601215,0.22681409,0.5768428,0.21144104,-0.05392637,-0.034484867,0.09381102,-0.11486348,-0.47974896,-0.37274343,-0.1728431,839.707,811.9048,807.0696,825.2015,754.68866,-0.254638671875,-0.01519775390625,0.99285888671875,4.448699951171875,-0.28411865234375,-0.76263427734375,1,1.0,1.0,1.0,1.0,50.00
2022-11-23 20:26:32.470,0.75012344,-0.17437991,0.042398468,0.4210011,0.54400516,-0.053236615,0.08837488,0.45321375,0.28506753,0.23601215,0.22681409,0.5768428,0.21144104,-0.05392637,-0.034484867,0.09381102,-0.11486348,-0.47974896,-0.37274343,-0.1728431,806.6667,809.89014,807.47253,802.23444,583.8461,-0.254638671875,-0.01519775390625,0.99285888671875,4.448699951171875,-0.28411865234375,-0.76263427734375,1,1.0,1.0,1.0,1.0,50.00
2022-11-23 20:26:32.492,0.75012344,-0.17437991,0.042398468,0.4210011,0.54400516,-0.053236615,0.08837488,0.45321375,0.28506753,0.23601215,0.22681409,0.5768428,0.21144104,-0.05392637,-0.034484867,0.09381102,-0.11486348,-0.47974896,-0.37274343,-0.1728431,785.7143,804.65204,806.26373,792.96704,538.71796,-0.2601318359375,-0.0146484375,0.980224609375,4.179534912109375,0.396270751953125,-0.949554443359375,1,1.0,1.0,1.0,1.0,50.00
2022-11-23 20:26:32.493,0.75012344,-0.17437991,0.042398468,0.4210011,0.54400516,-0.053236615,0.08837488,0.45321375,0.28506753,0.23601215,0.22681409,0.5768428,0.21144104,-0.05392637,-0.034484867,0.09381102,-0.11486348,-0.47974896,-0.37274343,-0.1728431,816.7399,806.26373,806.26373,817.1429,646.7033,-0.2601318359375,-0.0146484375,0.980224609375,4.179534912109375,0.396270751953125,-0.949554443359375,1,1.0,1.0,1.0,1.0,50.00
2022-11-23 20:26:32.493,0.75012344,-0.17437991,0.042398468,0.4210011,0.54400516,-0.053236615,0.08837488,0.45321375,0.28506753,0.23601215,0.22681409,0.5768428,0.21144104,-0.05392637,-0.034484867,0.09381102,-0.11486348,-0.47974896,-0.37274343,-0.1728431,836.8865,807.47253,807.47253,828.4249,763.1502,-0.2601318359375,-0.0146484375,0.980224609375,4.179534912109375,0.396270751953125,-0.949554443359375,1,1.0,1.0,1.0,1.0,50.00
2022-11-23 20:26:32.493,0.75012344,-0.17437991,0.042398468,0.4210011,0.54400516,-0.053236615,0.08837488,0.45321375,0.28506753,0.23601215,0.22681409,0.5768428,0.21144104,-0.05392637,-0.034484867,0.09381102,-0.11486348,-0.47974896,-0.37274343,-0.1728431,800.6227,804.65204,807.0696,794.9817,716.8132,-0.2601318359375,-0.0146484375,0.980224609375,4.179534912109375,0.396270751953125,-0.949554443359375,1,1.0,1.0,1.0,1.0,50.00
2022-11-23 20:26:32.493,0.75012344,-0.17437991,0.042398468,0.4210011,0.54400516,-0.053236615,0.08837488,0.45321375,0.28506753,0.23601215,0.22681409,0.5768428,0.21144104,-0.05392637,-0.034484867,0.09381102,-0.11486348,-0.47974896,-0.37274343,-0.1728431,777.6557,803.44324,808.68134,777.25275,655.16486,-0.2601318359375,-0.0146484375,0.980224609375,4.179534912109375,0.396270751953125,-0.949554443359375,1,1.0,1.0,1.0,1.0,50.00
2022-11-23 20:26:32.494,0.7067115,-0.1806035,0.10105915,0.4210011,0.54711,-0.071727395,0.11030944,0.45321375,0.23915952,0.22102615,0.26956663,0.5768428,0.2137157,-0.03656759,-0.0041494584,0.09381102,-0.11017999,-0.4749136,-0.3612971,-0.1728431,806.26373,803.44324,808.2784,802.23444,722.4542,-0.2601318359375,-0.0146484375,0.980224609375,4.179534912109375,0.396270751953125,-0.949554443359375,1,1.0,1.0,1.0,1.0,50.00
2022-11-23 20:26:32.495,0.7067115,-0.1806035,0.10105915,0.4210011,0.54711,-0.071727395,0.11030944,0.45321375,0.23915952,0.22102615,0.26956663,0.5768428,0.2137157,-0.03656759,-0.0041494584,0.09381102,-0.11017999,-0.4749136,-0.3612971,-0.1728431,834.87177,804.65204,807.47253,820.7692,864.2857,-0.2601318359375,-0.0146484375,0.980224609375,4.179534912109375,0.396270751953125,-0.949554443359375,1,1.0,1.0,1.0,1.0,50.00
2022-11-23 20:26:32.495,0.7067115,-0.1806035,0.10105915,0.4210011,0.54711,-0.071727395,0.11030944,0.45321375,0.23915952,0.22102615,0.26956663,0.5768428,0.2137157,-0.03656759,-0.0041494584,0.09381102,-0.11017999,-0.4749136,-0.3612971,-0.1728431,819.9634,804.65204,808.2784,807.0696,919.89014,-0.2601318359375,-0.0146484375,0.980224609375,4.179534912109375,0.396270751953125,-0.949554443359375,1,1.0,1.0,1.0,1.0,50.00
2022-11-23 20:26:32.495,0.7067115,-0.1806035,0.10105915,0.4210011,0.54711,-0.071727395,0.11030944,0.45321375,0.23915952,0.22102615,0.26956663,0.5768428,0.2137157,-0.03656759,-0.0041494584,0.09381102,-0.11017999,-0.4749136,-0.3612971,-0.1728431,782.49084,805.8608,807.8755,780.4762,720.0366,-0.2601318359375,-0.0146484375,0.980224609375,4.179534912109375,0.396270751953125,-0.949554443359375,1,1.0,1.0,1.0,1.0,50.00
2022-11-23 20:26:32.496,0.7067115,-0.1806035,0.10105915,0.4210011,0.54711,-0.071727395,0.11030944,0.45321375,0.23915952,0.22102615,0.26956663,0.5768428,0.2137157,-0.03656759,-0.0041494584,0.09381102,-0.11017999,-0.4749136,-0.3612971,-0.1728431,789.7436,809.89014,808.68134,794.57874,638.6447,-0.2601318359375,-0.0146484375,0.980224609375,4.179534912109375,0.396270751953125,-0.949554443359375,1,1.0,1.0,1.0,1.0,50.00
2022-11-23 20:26:32.496,0.7067115,-0.1806035,0.10105915,0.4210011,0.54711,-0.071727395,0.11030944,0.45321375,0.23915952,0.22102615,0.26956663,0.5768428,0.2137157,-0.03656759,-0.0041494584,0.09381102,-0.11017999,-0.4749136,-0.3612971,-0.1728431,834.4689,809.0842,809.89014,828.022,809.89014,-0.2601318359375,-0.0146484375,0.980224609375,4.179534912109375,0.396270751953125,-0.949554443359375,1,1.0,1.0,1.0,1.0,50.00
2022-11-23 20:26:32.496,0.7067115,-0.1806035,0.10105915,0.4210011,0.54711,-0.071727395,0.11030944,0.45321375,0.23915952,0.22102615,0.26956663,0.5768428,0.2137157,-0.03656759,-0.0041494584,0.09381102,-0.11017999,-0.4749136,-0.3612971,-0.1728431,832.4542,807.8755,809.4872,826.4103,1056.8865,-0.2601318359375,-0.0146484375,0.980224609375,4.179534912109375,0.396270751953125,-0.949554443359375,1,1.0,1.0,1.0,1.0,50.00
2022-11-23 20:26:32.518,0.7067115,-0.1806035,0.10105915,0.4210011,0.54711,-0.071727395,0.11030944,0.45321375,0.23915952,0.22102615,0.26956663,0.5768428,0.2137157,-0.03656759,-0.0041494584,0.09381102,-0.11017999,-0.4749136,-0.3612971,-0.1728431,790.54944,807.47253,806.26373,796.1905,1041.978,-0.2647705078125,-0.01409912109375,0.99066162109375,3.93280029296875,0.059814453125,-0.635528564453125,1,1.0,1.0,1.0,1.0,50.00
2022-11-23 20:26:32.519,0.7067115,-0.1806035,0.10105915,0.4210011,0.54711,-0.071727395,0.11030944,0.45321375,0.23915952,0.22102615,0.26956663,0.5768428,0.2137157,-0.03656759,-0.0041494584,0.09381102,-0.11017999,-0.4749136,-0.3612971,-0.1728431,784.90845,800.2198,808.2784,790.54944,702.3077,-0.2647705078125,-0.01409912109375,0.99066162109375,3.93280029296875,0.059814453125,-0.635528564453125,1,1.0,1.0,1.0,1.0,50.00
2022-11-23 20:26:32.519,0.7067115,-0.1806035,0.10105915,0.4210011,0.54711,-0.071727395,0.11030944,0.45321375,0.23915952,0.22102615,0.26956663,0.5768428,0.2137157,-0.03656759,-0.0041494584,0.09381102,-0.11017999,-0.4749136,-0.3612971,-0.1728431,817.1429,801.4286,807.47253,817.1429,735.34796,-0.2647705078125,-0.01409912109375,0.99066162109375,3.93280029296875,0.059814453125,-0.635528564453125,1,1.0,1.0,1.0,1.0,50.00
2022-11-23 20:26:32.519,0.7067115,-0.1806035,0.10105915,0.4210011,0.54711,-0.071727395,0.11030944,0.45321375,0.23915952,0.22102615,0.26956663,0.5768428,0.2137157,-0.03656759,-0.0041494584,0.09381102,-0.11017999,-0.4749136,-0.3612971,-0.1728431,821.5751,805.05493,799.41394,814.3223,842.52747,-0.2647705078125,-0.01409912109375,0.99066162109375,3.93280029296875,0.059814453125,-0.635528564453125,1,1.0,1.0,1.0,1.0,50.00
2022-11-23 20:26:32.520,0.7067115,-0.1806035,0.10105915,0.4210011,0.54711,-0.071727395,0.11030944,0.45321375,0.23915952,0.22102615,0.26956663,0.5768428,0.2137157,-0.03656759,-0.0041494584,0.09381102,-0.11017999,-0.4749136,-0.3612971,-0.1728431,783.69965,802.6374,794.57874,778.86444,697.47253,-0.2647705078125,-0.01409912109375,0.99066162109375,3.93280029296875,0.059814453125,-0.635528564453125,1,1.0,1.0,1.0,1.0,50.00
2022-11-23 20:26:32.520,0.7067115,-0.1806035,0.10105915,0.4210011,0.54711,-0.071727395,0.11030944,0.45321375,0.23915952,0.22102615,0.26956663,0.5768428,0.2137157,-0.03656759,-0.0041494584,0.09381102,-0.11017999,-0.4749136,-0.3612971,-0.1728431,767.98535,803.0403,800.2198,777.25275,602.7839,-0.2647705078125,-0.01409912109375,0.99066162109375,3.93280029296875,0.059814453125,-0.635528564453125,1,1.0,1.0,1.0,1.0,50.00
2022-11-23 20:26:32.520,0.7067115,-0.1806035,0.10105915,0.4210011,0.54711,-0.071727395,0.11030944,0.45321375,0.23915952,0.22102615,0.26956663,0.5768428,0.2137157,-0.03656759,-0.0041494584,0.09381102,-0.11017999,-0.4749136,-0.3612971,-0.1728431,800.2198,802.6374,805.05493,806.6667,751.06226,-0.2647705078125,-0.01409912109375,0.99066162109375,3.93280029296875,0.059814453125,-0.635528564453125,1,1.0,1.0,1.0,1.0,50.00
