TimeStamp,Delta_TP9,Delta_AF7,Delta_AF8,Delta_TP10,Theta_TP9,Theta_AF7,Theta_AF8,Theta_TP10,Alpha_TP9,Alpha_AF7,Alpha_AF8,Alpha_TP10,Beta_TP9,Beta_AF7,Beta_AF8,Beta_TP10,Gamma_TP9,Gamma_AF7,Gamma_AF8,Gamma_TP10,RAW_TP9,RAW_AF7,RAW_AF8,RAW_TP10,AUX_RIGHT,Accelerometer_X,Accelerometer_Y,Accelerometer_Z,Gyro_X,Gyro_Y,Gyro_Z,HeadBandOn,HSI_TP9,HSI_AF7,HSI_AF8,HSI_TP10,Battery,Elements
2022-11-23 20:10:51.687,0.95580435,0.38707176,0.08295574,0.9232961,0.7539084,0.29131222,0.118635446,0.42190856,0.5569868,0.3980516,0.36903128,0.6491039,0.122869164,-0.16149734,0.030734671,0.40412617,-0.23773511,-0.50722736,-0.6079508,-0.17010267,865.4945,812.3077,813.1135,840.5128,784.5055,-0.1639404296875,0.00238037109375,1.0068359375,3.60382080078125,-1.682281494140625,-0.127105712890625,1,1.0,1.0,1.0,1.0,50.00
2022-11-23 20:10:51.688,0.95580435,0.38707176,0.08295574,0.9232961,0.7539084,0.29131222,0.118635446,0.42190856,0.5569868,0.3980516,0.36903128,0.6491039,0.122869164,-0.16149734,0.030734671,0.40412617,-0.23773511,-0.50722736,-0.6079508,-0.17010267,778.86444,808.2784,813.1135,792.1612,674.10254,-0.1639404296875,0.00238037109375,1.0068359375,3.60382080078125,-1.682281494140625,-0.127105712890625,1,1.0,1.0,1.0,1.0,50.00
2022-11-23 20:10:51.688,0.95580435,0.38707176,0.08295574,0.9232961,0.7539084,0.29131222,0.118635446,0.42190856,0.5569868,0.3980516,0.36903128,0.6491039,0.122869164,-0.16149734,0.030734671,0.40412617,-0.23773511,-0.50722736,-0.6079508,-0.17010267,763.5531,807.8755,814.7253,792.1612,664.0293,-0.1639404296875,0.00238037109375,1.0068359375,3.60382080078125,-1.682281494140625,-0.127105712890625,1,1.0,1.0,1.0,1.0,50.00
2022-11-23 20:10:51.688,0.95580435,0.38707176,0.08295574,0.9232961,0.7539084,0.29131222,0.118635446,0.42190856,0.5569868,0.3980516,0.36903128,0.6491039,0.122869164,-0.16149734,0.030734671,0.40412617,-0.23773511,-0.50722736,-0.6079508,-0.17010267,841.7216,809.0842,815.12823,842.9304,814.3223,-0.1639404296875,0.00238037109375,1.0068359375,3.60382080078125,-1.682281494140625,-0.127105712890625,1,1.0,1.0,1.0,1.0,50.00
2022-11-23 20:10:51.689,0.95580435,0.38707176,0.08295574,0.9232961,0.7539084,0.29131222,0.118635446,0.42190856,0.5569868,0.3980516,0.36903128,0.6491039,0.122869164,-0.16149734,0.030734671,0.40412617,-0.23773511,-0.50722736,-0.6079508,-0.17010267,861.8681,805.05493,810.293,841.7216,850.58606,-0.1639404296875,0.00238037109375,1.0068359375,3.60382080078125,-1.682281494140625,-0.127105712890625,1,1.0,1.0,1.0,1.0,50.00
2022-11-23 20:10:51.689,0.96284413,0.39563367,0.07528304,0.92497355,0.7741188,0.29281947,0.12020043,0.41748354,0.55531377,0.39742252,0.3693155,0.64732325,0.12386735,-0.16548102,0.02681523,0.3927062,-0.23382936,-0.50046265,-0.60401523,-0.16927043,794.57874,807.47253,807.47253,787.72894,934.3956,-0.1639404296875,0.00238037109375,1.0068359375,3.60382080078125,-1.682281494140625,-0.127105712890625,1,1.0,1.0,1.0,1.0,50.00
2022-11-23 20:10:51.690,0.96284413,0.39563367,0.07528304,0.92497355,0.7741188,0.29281947,0.12020043,0.41748354,0.55531377,0.39742252,0.3693155,0.64732325,0.12386735,-0.16548102,0.02681523,0.3927062,-0.23382936,-0.50046265,-0.60401523,-0.16927043,756.30035,806.26373,807.47253,781.28204,1175.348,-0.1639404296875,0.00238037109375,1.0068359375,3.60382080078125,-1.682281494140625,-0.127105712890625,1,1.0,1.0,1.0,1.0,50.00
2022-11-23 20:10:51.690,0.96284413,0.39563367,0.07528304,0.92497355,0.7741188,0.29281947,0.12020043,0.41748354,0.55531377,0.39742252,0.3693155,0.64732325,0.12386735,-0.16548102,0.02681523,0.3927062,-0.23382936,-0.50046265,-0.60401523,-0.16927043,805.8608,803.44324,809.4872,819.9634,924.3223,-0.1639404296875,0.00238037109375,1.0068359375,3.60382080078125,-1.682281494140625,-0.127105712890625,1,1.0,1.0,1.0,1.0,50.00
2022-11-23 20:10:51.690,0.96284413,0.39563367,0.07528304,0.92497355,0.7741188,0.29281947,0.12020043,0.41748354,0.55531377,0.39742252,0.3693155,0.64732325,0.12386735,-0.16548102,0.02681523,0.3927062,-0.23382936,-0.50046265,-0.60401523,-0.16927043,853.8095,804.2491,810.293,838.49817,823.9927,-0.1639404296875,0.00238037109375,1.0068359375,3.60382080078125,-1.682281494140625,-0.127105712890625,1,1.0,1.0,1.0,1.0,50.00
2022-11-23 20:10:51.691,0.96284413,0.39563367,0.07528304,0.92497355,0.7741188,0.29281947,0.12020043,0.41748354,0.55531377,0.39742252,0.3693155,0.64732325,0.12386735,-0.16548102,0.02681523,0.3927062,-0.23382936,-0.50046265,-0.60401523,-0.16927043,813.1135,807.0696,808.2784,813.91943,866.7033,-0.1639404296875,0.00238037109375,1.0068359375,3.60382080078125,-1.682281494140625,-0.127105712890625,1,1.0,1.0,1.0,1.0,50.00
2022-11-23 20:10:51.691,0.96284413,0.39563367,0.07528304,0.92497355,0.7741188,0.29281947,0.12020043,0.41748354,0.55531377,0.39742252,0.3693155,0.64732325,0.12386735,-0.16548102,0.02681523,0.3927062,-0.23382936,-0.50046265,-0.60401523,-0.16927043,749.45056,805.4579,807.8755,780.4762,659.19415,-0.1639404296875,0.00238037109375,1.0068359375,3.60382080078125,-1.682281494140625,-0.127105712890625,1,1.0,1.0,1.0,1.0,50.00
2022-11-23 20:10:51.691,0.96284413,0.39563367,0.07528304,0.92497355,0.7741188,0.29281947,0.12020043,0.41748354,0.55531377,0.39742252,0.3693155,0.64732325,0.12386735,-0.16548102,0.02681523,0.3927062,-0.23382936,-0.50046265,-0.60401523,-0.16927043,779.2674,802.23444,804.65204,799.41394,641.8681,-0.1639404296875,0.00238037109375,1.0068359375,3.60382080078125,-1.682281494140625,-0.127105712890625,1,1.0,1.0,1.0,1.0,50.00
2022-11-23 20:10:51.723,0.96284413,0.39563367,0.07528304,0.92497355,0.7741188,0.29281947,0.12020043,0.41748354,0.55531377,0.39742252,0.3693155,0.64732325,0.12386735,-0.16548102,0.02681523,0.3927062,-0.23382936,-0.50046265,-0.60401523,-0.16927043,858.6447,803.0403,803.44324,838.0952,842.52747,-0.161865234375,0.00506591796875,1.01605224609375,2.49725341796875,-1.435546875,1.338348388671875,1,1.0,1.0,1.0,1.0,50.00
2022-11-23 20:10:51.723,0.96284413,0.39563367,0.07528304,0.92497355,0.7741188,0.29281947,0.12020043,0.41748354,0.55531377,0.39742252,0.3693155,0.64732325,0.12386735,-0.16548102,0.02681523,0.3927062,-0.23382936,-0.50046265,-0.60401523,-0.16927043,842.9304,801.8315,803.0403,814.7253,919.89014,-0.161865234375,0.00506591796875,1.01605224609375,2.49725341796875,-1.435546875,1.338348388671875,1,1.0,1.0,1.0,1.0,50.00
2022-11-23 20:10:51.724,0.96284413,0.39563367,0.07528304,0.92497355,0.7741188,0.29281947,0.12020043,0.41748354,0.55531377,0.39742252,0.3693155,0.64732325,0.12386735,-0.16548102,0.02681523,0.3927062,-0.23382936,-0.50046265,-0.60401523,-0.16927043,759.92676,805.8608,798.60803,766.77655,720.0366,-0.161865234375,0.00506591796875,1.01605224609375,2.49725341796875,-1.435546875,1.338348388671875,1,1.0,1.0,1.0,1.0,50.00
2022-11-23 20:10:51.724,0.96284413,0.39563367,0.07528304,0.92497355,0.7741188,0.29281947,0.12020043,0.41748354,0.55531377,0.39742252,0.3693155,0.64732325,0.12386735,-0.16548102,0.02681523,0.3927062,-0.23382936,-0.50046265,-0.60401523,-0.16927043,766.77655,808.2784,798.60803,780.07324,613.663,-0.161865234375,0.00506591796875,1.01605224609375,2.49725341796875,-1.435546875,1.338348388671875,1,1.0,1.0,1.0,1.0,50.00
2022-11-23 20:10:51.724,0.96284413,0.39563367,0.07528304,0.92497355,0.7741188,0.29281947,0.12020043,0.41748354,0.55531377,0.39742252,0.3693155,0.64732325,0.12386735,-0.16548102,0.02681523,0.3927062,-0.23382936,-0.50046265,-0.60401523,-0.16927043,844.5421,808.68134,805.05493,833.2601,791.75824,-0.161865234375,0.00506591796875,1.01605224609375,2.49725341796875,-1.435546875,1.338348388671875,1,1.0,1.0,1.0,1.0,50.00
2022-11-23 20:10:51.724,0.96284413,0.39563367,0.07528304,0.92497355,0.7741188,0.29281947,0.12020043,0.41748354,0.55531377,0.39742252,0.3693155,0.64732325,0.12386735,-0.16548102,0.02681523,0.3927062,-0.23382936,-0.50046265,-0.60401523,-0.16927043,853.00366,807.47253,803.0403,835.6777,992.8205,-0.161865234375,0.00506591796875,1.01605224609375,2.49725341796875,-1.435546875,1.338348388671875,1,1.0,1.0,1.0,1.0,50.00
2022-11-23 20:10:51.724,0.96284413,0.39563367,0.07528304,0.92497355,0.7741188,0.29281947,0.12020043,0.41748354,0.55531377,0.39742252,0.3693155,0.64732325,0.12386735,-0.16548102,0.02681523,0.3927062,-0.23382936,-0.50046265,-0.60401523,-0.16927043,780.4762,801.8315,801.8315,781.685,875.56775,-0.161865234375,0.00506591796875,1.01605224609375,2.49725341796875,-1.435546875,1.338348388671875,1,1.0,1.0,1.0,1.0,50.00
2022-11-23 20:10:51.725,0.96284413,0.39563367,0.07528304,0.92497355,0.7741188,0.29281947,0.12020043,0.41748354,0.55531377,0.39742252,0.3693155,0.64732325,0.12386735,-0.16548102,0.02681523,0.3927062,-0.23382936,-0.50046265,-0.60401523,-0.16927043,757.9121,802.23444,804.65204,768.7912,715.2015,-0.161865234375,0.00506591796875,1.01605224609375,2.49725341796875,-1.435546875,1.338348388671875,1,1.0,1.0,1.0,1.0,50.00
2022-11-23 20:10:51.725,0.96284413,0.39563367,0.07528304,0.92497355,0.7741188,0.29281947,0.12020043,0.41748354,0.55531377,0.39742252,0.3693155,0.64732325,0.12386735,-0.16548102,0.02681523,0.3927062,-0.23382936,-0.50046265,-0.60401523,-0.16927043,827.619,803.8461,801.4286,809.4872,778.0586,-0.161865234375,0.00506591796875,1.01605224609375,2.49725341796875,-1.435546875,1.338348388671875,1,1.0,1.0,1.0,1.0,50.00
2022-11-23 20:10:51.725,0.96284413,0.39563367,0.07528304,0.92497355,0.7741188,0.29281947,0.12020043,0.41748354,0.55531377,0.39742252,0.3693155,0.64732325,0.12386735,-0.16548102,0.02681523,0.3927062,-0.23382936,-0.50046265,-0.60401523,-0.16927043,863.0769,802.6374,797.8022,819.5604,1064.1392,-0.161865234375,0.00506591796875,1.01605224609375,2.49725341796875,-1.435546875,1.338348388671875,1,1.0,1.0,1.0,1.0,50.00
2022-11-23 20:10:51.725,0.96284413,0.39563367,0.07528304,0.92497355,0.7741188,0.29281947,0.12020043,0.41748354,0.55531377,0.39742252,0.3693155,0.64732325,0.12386735,-0.16548102,0.02681523,0.3927062,-0.23382936,-0.50046265,-0.60401523,-0.16927043,796.5934,799.011,796.1905,776.8498,910.2198,-0.161865234375,0.00506591796875,1.01605224609375,2.49725341796875,-1.435546875,1.338348388671875,1,1.0,1.0,1.0,1.0,50.00
2022-11-23 20:10:51.726,0.96284413,0.39563367,0.07528304,0.92497355,0.7741188,0.29281947,0.12020043,0.41748354,0.55531377,0.39742252,0.3693155,0.64732325,0.12386735,-0.16548102,0.02681523,0.3927062,-0.23382936,-0.50046265,-0.60401523,-0.16927043,736.9597,795.78754,792.96704,751.06226,560.4762,-0.161865234375,0.00506591796875,1.01605224609375,2.49725341796875,-1.435546875,1.338348388671875,1,1.0,1.0,1.0,1.0,50.00
2022-11-23 20:10:51.751,0.96284413,0.39563367,0.07528304,0.92497355,0.7741188,0.29281947,0.12020043,0.41748354,0.55531377,0.39742252,0.3693155,0.64732325,0.12386735,-0.16548102,0.02681523,0.3927062,-0.23382936,-0.50046265,-0.60401523,-0.16927043,786.1172,800.2198,794.57874,786.52014,637.4359,-0.1719970703125,-6.103515625E-4,1.01593017578125,4.23187255859375,-1.42059326171875,1.592559814453125,1,1.0,1.0,1.0,1.0,50.00
2022-11-23 20:10:51.751,0.96284413,0.39563367,0.07528304,0.92497355,0.7741188,0.29281947,0.12020043,0.41748354,0.55531377,0.39742252,0.3693155,0.64732325,0.12386735,-0.16548102,0.02681523,0.3927062,-0.23382936,-0.50046265,-0.60401523,-0.16927043,855.42126,802.23444,799.41394,824.3956,825.2015,-0.1719970703125,-6.103515625E-4,1.01593017578125,4.23187255859375,-1.42059326171875,1.592559814453125,1,1.0,1.0,1.0,1.0,50.00
2022-11-23 20:10:51.751,0.96284413,0.39563367,0.07528304,0.92497355,0.7741188,0.29281947,0.12020043,0.41748354,0.55531377,0.39742252,0.3693155,0.64732325,0.12386735,-0.16548102,0.02681523,0.3927062,-0.23382936,-0.50046265,-0.60401523,-0.16927043,820.3663,801.02563,802.6374,794.57874,848.5714,-0.1719970703125,-6.103515625E-4,1.01593017578125,4.23187255859375,-1.42059326171875,1.592559814453125,1,1.0,1.0,1.0,1.0,50.00
2022-11-23 20:10:51.752,0.96284413,0.39563367,0.07528304,0.92497355,0.7741188,0.29281947,0.12020043,0.41748354,0.55531377,0.39742252,0.3693155,0.64732325,0.12386735,-0.16548102,0.02681523,0.3927062,-0.23382936,-0.50046265,-0.60401523,-0.16927043,745.42126,801.02563,801.4286,751.4652,686.5934,-0.1719970703125,-6.103515625E-4,1.01593017578125,4.23187255859375,-1.42059326171875,1.592559814453125,1,1.0,1.0,1.0,1.0,50.00
2022-11-23 20:10:51.752,0.96284413,0.39563367,0.07528304,0.92497355,0.7741188,0.29281947,0.12020043,0.41748354,0.55531377,0.39742252,0.3693155,0.64732325,0.12386735,-0.16548102,0.02681523,0.3927062,-0.23382936,-0.50046265,-0.60401523,-0.16927043,766.77655,800.6227,799.81683,777.25275,636.63007,-0.1719970703125,-6.103515625E-4,1.01593017578125,4.23187255859375,-1.42059326171875,1.592559814453125,1,1.0,1.0,1.0,1.0,50.00
2022-11-23 20:10:51.752,0.96284413,0.39563367,0.07528304,0.92497355,0.7741188,0.29281947,0.12020043,0.41748354,0.55531377,0.39742252,0.3693155,0.64732325,0.12386735,-0.16548102,0.02681523,0.3927062,-0.23382936,-0.50046265,-0.60401523,-0.16927043,845.34796,801.8315,803.44324,828.8278,821.1722,-0.1719970703125,-6.103515625E-4,1.01593017578125,4.23187255859375,-1.42059326171875,1.592559814453125,1,1.0,1.0,1.0,1.0,50.00
2022-11-23 20:10:51.752,0.96284413,0.39563367,0.07528304,0.92497355,0.7741188,0.29281947,0.12020043,0.41748354,0.55531377,0.39742252,0.3693155,0.64732325,0.12386735,-0.16548102,0.02681523,0.3927062,-0.23382936,-0.50046265,-0.60401523,-0.16927043,826.4103,799.41394,802.6374,809.89014,883.6264,-0.1719970703125,-6.103515625E-4,1.01593017578125,4.23187255859375,-1.42059326171875,1.592559814453125,1,1.0,1.0,1.0,1.0,50.00
2022-11-23 20:10:51.752,0.959335,0.3921739,0.064144365,0.9232588,0.77824616,0.29563186,0.12378715,0.39698964,0.55531377,0.3939505,0.37666407,0.6304308,0.11210077,-0.16938272,0.021283083,0.37595162,-0.22920558,-0.4923553,-0.60366637,-0.16228256,746.2271,796.1905,799.41394,751.8681,682.1612,-0.1719970703125,-6.103515625E-4,1.01593017578125,4.23187255859375,-1.42059326171875,1.592559814453125,1,1.0,1.0,1.0,1.0,50.00
2022-11-23 20:10:51.754,0.959335,0.3921739,0.064144365,0.9232588,0.77824616,0.29563186,0.12378715,0.39698964,0.55531377,0.3939505,0.37666407,0.6304308,0.11210077,-0.16938272,0.021283083,0.37595162,-0.22920558,-0.4923553,-0.60366637,-0.16228256,745.82416,796.1905,797.8022,753.8828,857.8388,-0.1719970703125,-6.103515625E-4,1.01593017578125,4.23187255859375,-1.42059326171875,1.592559814453125,1,1.0,1.0,1.0,1.0,50.00
2022-11-23 20:10:51.754,0.959335,0.3921739,0.064144365,0.9232588,0.77824616,0.29563186,0.12378715,0.39698964,0.55531377,0.3939505,0.37666407,0.6304308,0.11210077,-0.16938272,0.021283083,0.37595162,-0.22920558,-0.4923553,-0.60366637,-0.16228256,820.7692,797.8022,796.5934,815.9341,1169.3041,-0.1719970703125,-6.103515625E-4,1.01593017578125,4.23187255859375,-1.42059326171875,1.592559814453125,1,1.0,1.0,1.0,1.0,50.00
2022-11-23 20:10:51.754,0.959335,0.3921739,0.064144365,0.9232588,0.77824616,0.29563186,0.12378715,0.39698964,0.55531377,0.3939505,0.37666407,0.6304308,0.11210077,-0.16938272,0.021283083,0.37595162,-0.22920558,-0.4923553,-0.60366637,-0.16228256,839.304,795.38464,802.6374,824.7985,960.18317,-0.1719970703125,-6.103515625E-4,1.01593017578125,4.23187255859375,-1.42059326171875,1.592559814453125,1,1.0,1.0,1.0,1.0,50.00
2022-11-23 20:10:51.754,0.959335,0.3921739,0.064144365,0.9232588,0.77824616,0.29563186,0.12378715,0.39698964,0.55531377,0.3939505,0.37666407,0.6304308,0.11210077,-0.16938272,0.021283083,0.37595162,-0.22920558,-0.4923553,-0.60366637,-0.16228256,761.9414,798.60803,800.2198,771.2088,672.0879,-0.1719970703125,-6.103515625E-4,1.01593017578125,4.23187255859375,-1.42059326171875,1.592559814453125,1,1.0,1.0,1.0,1.0,50.00
2022-11-23 20:10:51.809,0.959335,0.3921739,0.064144365,0.9232588,0.77824616,0.29563186,0.12378715,0.39698964,0.55531377,0.3939505,0.37666407,0.6304308,0.11210077,-0.16938272,0.021283083,0.37595162,-0.22920558,-0.4923553,-0.60366637,-0.16228256,733.73627,801.4286,799.81683,757.50916,599.15753,-0.17529296875,0.00994873046875,1.00238037109375,5.121612548828125,0.680389404296875,-0.04486083984375,1,1.0,1.0,1.0,1.0,50.00
2022-11-23 20:10:51.810,0.959335,0.3921739,0.064144365,0.9232588,0.77824616,0.29563186,0.12378715,0.39698964,0.55531377,0.3939505,0.37666407,0.6304308,0.11210077,-0.16938272,0.021283083,0.37595162,-0.22920558,-0.4923553,-0.60366637,-0.16228256,807.0696,801.4286,803.0403,800.2198,724.87177,-0.17529296875,0.00994873046875,1.00238037109375,5.121612548828125,0.680389404296875,-0.04486083984375,1,1.0,1.0,1.0,1.0,50.00
2022-11-23 20:10:51.810,0.959335,0.3921739,0.064144365,0.9232588,0.77824616,0.29563186,0.12378715,0.39698964,0.55531377,0.3939505,0.37666407,0.6304308,0.11210077,-0.16938272,0.021283083,0.37595162,-0.22920558,-0.4923553,-0.60366637,-0.16228256,855.0183,806.26373,803.44324,834.87177,894.90845,-0.17529296875,0.00994873046875,1.00238037109375,5.121612548828125,0.680389404296875,-0.04486083984375,1,1.0,1.0,1.0,1.0,50.00
2022-11-23 20:10:51.810,0.959335,0.3921739,0.064144365,0.9232588,0.77824616,0.29563186,0.12378715,0.39698964,0.55531377,0.3939505,0.37666407,0.6304308,0.11210077,-0.16938272,0.021283083,0.37595162,-0.22920558,-0.4923553,-0.60366637,-0.16228256,799.41394,804.65204,797.8022,791.3553,826.8132,-0.17529296875,0.00994873046875,1.00238037109375,5.121612548828125,0.680389404296875,-0.04486083984375,1,1.0,1.0,1.0,1.0,50.00
2022-11-23 20:10:51.811,0.959335,0.3921739,0.064144365,0.9232588,0.77824616,0.29563186,0.12378715,0.39698964,0.55531377,0.3939505,0.37666407,0.6304308,0.11210077,-0.16938272,0.021283083,0.37595162,-0.22920558,-0.4923553,-0.60366637,-0.16228256,745.82416,802.23444,796.99634,765.9707,640.2564,-0.17529296875,0.00994873046875,1.00238037109375,5.121612548828125,0.680389404296875,-0.04486083984375,1,1.0,1.0,1.0,1.0,50.00
2022-11-23 20:10:51.811,0.959335,0.3921739,0.064144365,0.9232588,0.77824616,0.29563186,0.12378715,0.39698964,0.55531377,0.3939505,0.37666407,0.6304308,0.11210077,-0.16938272,0.021283083,0.37595162,-0.22920558,-0.4923553,-0.60366637,-0.16228256,801.02563,802.6374,801.4286,813.5165,792.5641,-0.17529296875,0.00994873046875,1.00238037109375,5.121612548828125,0.680389404296875,-0.04486083984375,1,1.0,1.0,1.0,1.0,50.00
2022-11-23 20:10:51.811,0.959335,0.3921739,0.064144365,0.9232588,0.77824616,0.29563186,0.12378715,0.39698964,0.55531377,0.3939505,0.37666407,0.6304308,0.11210077,-0.16938272,0.021283083,0.37595162,-0.22920558,-0.4923553,-0.60366637,-0.16228256,857.4359,799.011,803.8461,843.3333,996.4469,-0.17529296875,0.00994873046875,1.00238037109375,5.121612548828125,0.680389404296875,-0.04486083984375,1,1.0,1.0,1.0,1.0,50.00
2022-11-23 20:10:51.812,0.959335,0.3921739,0.064144365,0.9232588,0.77824616,0.29563186,0.12378715,0.39698964,0.55531377,0.3939505,0.37666407,0.6304308,0.11210077,-0.16938272,0.021283083,0.37595162,-0.22920558,-0.4923553,-0.60366637,-0.16228256,815.5311,798.60803,800.6227,804.2491,923.5165,-0.17529296875,0.00994873046875,1.00238037109375,5.121612548828125,0.680389404296875,-0.04486083984375,1,1.0,1.0,1.0,1.0,50.00
2022-11-23 20:10:51.812,0.959335,0.3921739,0.064144365,0.9232588,0.77824616,0.29563186,0.12378715,0.39698964,0.55531377,0.3939505,0.37666407,0.6304308,0.11210077,-0.16938272,0.021283083,0.37595162,-0.22920558,-0.4923553,-0.60366637,-0.16228256,751.4652,798.60803,801.02563,767.5824,963.8095,-0.17529296875,0.00994873046875,1.00238037109375,5.121612548828125,0.680389404296875,-0.04486083984375,1,1.0,1.0,1.0,1.0,50.00
2022-11-23 20:10:51.812,0.959335,0.3921739,0.064144365,0.9232588,0.77824616,0.29563186,0.12378715,0.39698964,0.55531377,0.3939505,0.37666407,0.6304308,0.11210077,-0.16938272,0.021283083,0.37595162,-0.22920558,-0.4923553,-0.60366637,-0.16228256,772.8205,801.4286,807.47253,790.9524,907.8022,-0.17529296875,0.00994873046875,1.00238037109375,5.121612548828125,0.680389404296875,-0.04486083984375,1,1.0,1.0,1.0,1.0,50.00
2022-11-23 20:10:51.812,0.959335,0.3921739,0.064144365,0.9232588,0.77824616,0.29563186,0.12378715,0.39698964,0.55531377,0.3939505,0.37666407,0.6304308,0.11210077,-0.16938272,0.021283083,0.37595162,-0.22920558,-0.4923553,-0.60366637,-0.16228256,850.58606,804.2491,808.2784,838.9011,909.81683,-0.17529296875,0.00994873046875,1.00238037109375,5.121612548828125,0.680389404296875,-0.04486083984375,1,1.0,1.0,1.0,1.0,50.00
2022-11-23 20:10:51.813,0.959335,0.3921739,0.064144365,0.9232588,0.77824616,0.29563186,0.12378715,0.39698964,0.55531377,0.3939505,0.37666407,0.6304308,0.11210077,-0.16938272,0.021283083,0.37595162,-0.22920558,-0.4923553,-0.60366637,-0.16228256,848.97437,799.81683,806.26373,831.6484,1002.49084,-0.17529296875,0.00994873046875,1.00238037109375,5.121612548828125,0.680389404296875,-0.04486083984375,1,1.0,1.0,1.0,1.0,50.00
2022-11-23 20:10:51.833,0.959335,0.3921739,0.064144365,0.9232588,0.77824616,0.29563186,0.12378715,0.39698964,0.55531377,0.3939505,0.37666407,0.6304308,0.11210077,-0.16938272,0.021283083,0.37595162,-0.22920558,-0.4923553,-0.60366637,-0.16228256,768.7912,802.23444,804.65204,777.25275,880.0,-0.17877197265625,0.010009765625,0.99493408203125,4.792633056640625,-0.037384033203125,1.069183349609375,1,1.0,1.0,1.0,1.0,50.00
2022-11-23 20:10:51.834,0.959335,0.3921739,0.064144365,0.9232588,0.77824616,0.29563186,0.12378715,0.39698964,0.55531377,0.3939505,0.37666407,0.6304308,0.11210077,-0.16938272,0.021283083,0.37595162,-0.22920558,-0.4923553,-0.60366637,-0.16228256,765.56775,804.2491,807.0696,777.25275,663.22345,-0.17877197265625,0.010009765625,0.99493408203125,4.792633056640625,-0.037384033203125,1.069183349609375,1,1.0,1.0,1.0,1.0,50.00
2022-11-23 20:10:51.834,0.959335,0.3921739,0.064144365,0.9232588,0.77824616,0.29563186,0.12378715,0.39698964,0.55531377,0.3939505,0.37666407,0.6304308,0.11210077,-0.16938272,0.021283083,0.37595162,-0.22920558,-0.4923553,-0.60366637,-0.16228256,843.3333,803.0403,809.0842,834.87177,726.4835,-0.17877197265625,0.010009765625,0.99493408203125,4.792633056640625,-0.037384033203125,1.069183349609375,1,1.0,1.0,1.0,1.0,50.00
2022-11-23 20:10:51.834,0.959335,0.3921739,0.064144365,0.9232588,0.77824616,0.29563186,0.12378715,0.39698964,0.55531377,0.3939505,0.37666407,0.6304308,0.11210077,-0.16938272,0.021283083,0.37595162,-0.22920558,-0.4923553,-0.60366637,-0.16228256,859.45056,806.6667,806.26373,841.7216,836.8865,-0.17877197265625,0.010009765625,0.99493408203125,4.792633056640625,-0.037384033203125,1.069183349609375,1,1.0,1.0,1.0,1.0,50.00
2022-11-23 20:10:51.834,0.959335,0.3921739,0.064144365,0.9232588,0.77824616,0.29563186,0.12378715,0.39698964,0.55531377,0.3939505,0.37666407,0.6304308,0.11210077,-0.16938272,0.021283083,0.37595162,-0.22920558,-0.4923553,-0.60366637,-0.16228256,791.75824,807.0696,806.6667,792.5641,716.0073,-0.17877197265625,0.010009765625,0.99493408203125,4.792633056640625,-0.037384033203125,1.069183349609375,1,1.0,1.0,1.0,1.0,50.00
2022-11-23 20:10:51.835,0.959335,0.3921739,0.064144365,0.9232588,0.77824616,0.29563186,0.12378715,0.39698964,0.55531377,0.3939505,0.37666407,0.6304308,0.11210077,-0.16938272,0.021283083,0.37595162,-0.22920558,-0.4923553,-0.60366637,-0.16228256,759.12085,809.4872,805.4579,771.6117,678.1319,-0.17877197265625,0.010009765625,0.99493408203125,4.792633056640625,-0.037384033203125,1.069183349609375,1,1.0,1.0,1.0,1.0,50.00
2022-11-23 20:10:51.835,0.959335,0.3921739,0.064144365,0.9232588,0.77824616,0.29563186,0.12378715,0.39698964,0.55531377,0.3939505,0.37666407,0.6304308,0.11210077,-0.16938272,0.021283083,0.37595162,-0.22920558,-0.4923553,-0.60366637,-0.16228256,818.7546,810.696,808.2784,816.337,807.47253,-0.17877197265625,0.010009765625,0.99493408203125,4.792633056640625,-0.037384033203125,1.069183349609375,1,1.0,1.0,1.0,1.0,50.00
2022-11-23 20:10:51.835,0.959335,0.3921739,0.064144365,0.9232588,0.77824616,0.29563186,0.12378715,0.39698964,0.55531377,0.3939505,0.37666407,0.6304308,0.11210077,-0.16938272,0.021283083,0.37595162,-0.22920558,-0.4923553,-0.60366637,-0.16228256,862.27106,806.26373,812.71063,842.9304,939.6337,-0.17877197265625,0.010009765625,0.99493408203125,4.792633056640625,-0.037384033203125,1.069183349609375,1,1.0,1.0,1.0,1.0,50.00
2022-11-23 20:10:51.836,0.959335,0.3921739,0.064144365,0.9232588,0.77824616,0.29563186,0.12378715,0.39698964,0.55531377,0.3939505,0.37666407,0.6304308,0.11210077,-0.16938272,0.021283083,0.37595162,-0.22920558,-0.4923553,-0.60366637,-0.16228256,811.9048,807.8755,809.89014,800.6227,993.6264,-0.17877197265625,0.010009765625,0.99493408203125,4.792633056640625,-0.037384033203125,1.069183349609375,1,1.0,1.0,1.0,1.0,50.00
2022-11-23 20:10:51.836,0.9414479,0.37352753,0.04993323,0.9195246,0.7778641,0.29976803,0.13787612,0.37603623,0.55531377,0.38351628,0.38288608,0.6207923,0.08299458,-0.17217492,0.013579251,0.35030797,-0.21925136,-0.4862364,-0.60158294,-0.15304941,748.6447,805.8608,813.91943,767.5824,701.9048,-0.17877197265625,0.010009765625,0.99493408203125,4.792633056640625,-0.037384033203125,1.069183349609375,1,1.0,1.0,1.0,1.0,50.00
2022-11-23 20:10:51.837,0.9414479,0.37352753,0.04993323,0.9195246,0.7778641,0.29976803,0.13787612,0.37603623,0.55531377,0.38351628,0.38288608,0.6207923,0.08299458,-0.17217492,0.013579251,0.35030797,-0.21925136,-0.4862364,-0.60158294,-0.15304941,777.6557,801.4286,815.9341,794.57874,654.7619,-0.17877197265625,0.010009765625,0.99493408203125,4.792633056640625,-0.037384033203125,1.069183349609375,1,1.0,1.0,1.0,1.0,50.00
2022-11-23 20:10:51.838,0.9414479,0.37352753,0.04993323,0.9195246,0.7778641,0.29976803,0.13787612,0.37603623,0.55531377,0.38351628,0.38288608,0.6207923,0.08299458,-0.17217492,0.013579251,0.35030797,-0.21925136,-0.4862364,-0.60158294,-0.15304941,846.55676,802.6374,809.89014,835.2747,872.3443,-0.17877197265625,0.010009765625,0.99493408203125,4.792633056640625,-0.037384033203125,1.069183349609375,1,1.0,1.0,1.0,1.0,50.00
2022-11-23 20:10:51.884,0.9414479,0.37352753,0.04993323,0.9195246,0.7778641,0.29976803,0.13787612,0.37603623,0.55531377,0.38351628,0.38288608,0.6207923,0.08299458,-0.17217492,0.013579251,0.35030797,-0.21925136,-0.4862364,-0.60158294,-0.15304941,830.0366,805.05493,807.0696,821.978,805.4579,-0.17877197265625,0.010009765625,0.99493408203125,4.792633056640625,-0.037384033203125,1.069183349609375,1,1.0,1.0,1.0,1.0,50.00
2022-11-23 20:10:51.884,0.9414479,0.37352753,0.04993323,0.9195246,0.7778641,0.29976803,0.13787612,0.37603623,0.55531377,0.38351628,0.38288608,0.6207923,0.08299458,-0.17217492,0.013579251,0.35030797,-0.21925136,-0.4862364,-0.60158294,-0.15304941,749.0476,807.0696,804.65204,765.9707,589.4872,-0.17877197265625,0.010009765625,0.99493408203125,4.792633056640625,-0.037384033203125,1.069183349609375,1,1.0,1.0,1.0,1.0,50.00
2022-11-23 20:10:51.884,0.9414479,0.37352753,0.04993323,0.9195246,0.7778641,0.29976803,0.13787612,0.37603623,0.55531377,0.38351628,0.38288608,0.6207923,0.08299458,-0.17217492,0.013579251,0.35030797,-0.21925136,-0.4862364,-0.60158294,-0.15304941,751.06226,809.4872,802.23444,774.43225,670.87915,-0.17877197265625,0.010009765625,0.99493408203125,4.792633056640625,-0.037384033203125,1.069183349609375,1,1.0,1.0,1.0,1.0,50.00
2022-11-23 20:10:51.884,0.9414479,0.37352753,0.04993323,0.9195246,0.7778641,0.29976803,0.13787612,0.37603623,0.55531377,0.38351628,0.38288608,0.6207923,0.08299458,-0.17217492,0.013579251,0.35030797,-0.21925136,-0.4862364,-0.60158294,-0.15304941,836.08057,809.0842,806.26373,835.2747,944.4689,-0.17877197265625,0.010009765625,0.99493408203125,4.792633056640625,-0.037384033203125,1.069183349609375,1,1.0,1.0,1.0,1.0,50.00
2022-11-23 20:10:51.885,0.9414479,0.37352753,0.04993323,0.9195246,0.7778641,0.29976803,0.13787612,0.37603623,0.55531377,0.38351628,0.38288608,0.6207923,0.08299458,-0.17217492,0.013579251,0.35030797,-0.21925136,-0.4862364,-0.60158294,-0.15304941,844.5421,807.47253,801.02563,831.6484,931.978,-0.17877197265625,0.010009765625,0.99493408203125,4.792633056640625,-0.037384033203125,1.069183349609375,1,1.0,1.0,1.0,1.0,50.00
2022-11-23 20:10:51.885,0.9414479,0.37352753,0.04993323,0.9195246,0.7778641,0.29976803,0.13787612,0.37603623,0.55531377,0.38351628,0.38288608,0.6207923,0.08299458,-0.17217492,0.013579251,0.35030797,-0.21925136,-0.4862364,-0.60158294,-0.15304941,772.01465,805.8608,795.38464,779.2674,698.68134,-0.17877197265625,0.010009765625,0.99493408203125,4.792633056640625,-0.037384033203125,1.069183349609375,1,1.0,1.0,1.0,1.0,50.00
2022-11-23 20:10:51.885,0.9414479,0.37352753,0.04993323,0.9195246,0.7778641,0.29976803,0.13787612,0.37603623,0.55531377,0.38351628,0.38288608,0.6207923,0.08299458,-0.17217492,0.013579251,0.35030797,-0.21925136,-0.4862364,-0.60158294,-0.15304941,763.1502,807.47253,799.011,778.46155,653.1502,-0.17877197265625,0.010009765625,0.99493408203125,4.792633056640625,-0.037384033203125,1.069183349609375,1,1.0,1.0,1.0,1.0,50.00
2022-11-23 20:10:51.885,0.9414479,0.37352753,0.04993323,0.9195246,0.7778641,0.29976803,0.13787612,0.37603623,0.55531377,0.38351628,0.38288608,0.6207923,0.08299458,-0.17217492,0.013579251,0.35030797,-0.21925136,-0.4862364,-0.60158294,-0.15304941,828.022,808.2784,800.6227,826.8132,971.06226,-0.17877197265625,0.010009765625,0.99493408203125,4.792633056640625,-0.037384033203125,1.069183349609375,1,1.0,1.0,1.0,1.0,50.00
2022-11-23 20:10:51.886,0.9414479,0.37352753,0.04993323,0.9195246,0.7778641,0.29976803,0.13787612,0.37603623,0.55531377,0.38351628,0.38288608,0.6207923,0.08299458,-0.17217492,0.013579251,0.35030797,-0.21925136,-0.4862364,-0.60158294,-0.15304941,850.18317,803.44324,800.6227,832.4542,1120.5494,-0.17877197265625,0.010009765625,0.99493408203125,4.792633056640625,-0.037384033203125,1.069183349609375,1,1.0,1.0,1.0,1.0,50.00
2022-11-23 20:10:51.886,0.9414479,0.37352753,0.04993323,0.9195246,0.7778641,0.29976803,0.13787612,0.37603623,0.55531377,0.38351628,0.38288608,0.6207923,0.08299458,-0.17217492,0.013579251,0.35030797,-0.21925136,-0.4862364,-0.60158294,-0.15304941,790.9524,803.8461,802.6374,782.8938,925.12823,-0.17877197265625,0.010009765625,0.99493408203125,4.792633056640625,-0.037384033203125,1.069183349609375,1,1.0,1.0,1.0,1.0,50.00
2022-11-23 20:10:51.886,0.9414479,0.37352753,0.04993323,0.9195246,0.7778641,0.29976803,0.13787612,0.37603623,0.55531377,0.38351628,0.38288608,0.6207923,0.08299458,-0.17217492,0.013579251,0.35030797,-0.21925136,-0.4862364,-0.60158294,-0.15304941,752.27106,805.4579,801.4286,774.0293,645.09155,-0.17877197265625,0.010009765625,0.99493408203125,4.792633056640625,-0.037384033203125,1.069183349609375,1,1.0,1.0,1.0,1.0,50.00
2022-11-23 20:10:51.886,0.9414479,0.37352753,0.04993323,0.9195246,0.7778641,0.29976803,0.13787612,0.37603623,0.55531377,0.38351628,0.38288608,0.6207923,0.08299458,-0.17217492,0.013579251,0.35030797,-0.21925136,-0.4862364,-0.60158294,-0.15304941,798.60803,800.6227,801.4286,813.1135,700.293,-0.17877197265625,0.010009765625,0.99493408203125,4.792633056640625,-0.037384033203125,1.069183349609375,1,1.0,1.0,1.0,1.0,50.00
2022-11-23 20:10:51.960,0.9414479,0.37352753,0.04993323,0.9195246,0.7778641,0.29976803,0.13787612,0.37603623,0.55531377,0.38351628,0.38288608,0.6207923,0.08299458,-0.17217492,0.013579251,0.35030797,-0.21925136,-0.4862364,-0.60158294,-0.15304941,854.61536,801.02563,807.47253,838.49817,982.74725,-0.16766357421875,0.00946044921875,1.000244140625,2.75146484375,-2.011260986328125,0.082244873046875,1,1.0,1.0,1.0,1.0,50.00
2022-11-23 20:10:51.960,0.9414479,0.37352753,0.04993323,0.9195246,0.7778641,0.29976803,0.13787612,0.37603623,0.55531377,0.38351628,0.38288608,0.6207923,0.08299458,-0.17217492,0.013579251,0.35030797,-0.21925136,-0.4862364,-0.60158294,-0.15304941,825.2015,807.47253,808.68134,808.2784,955.34796,-0.16766357421875,0.00946044921875,1.000244140625,2.75146484375,-2.011260986328125,0.082244873046875,1,1.0,1.0,1.0,1.0,50.00
2022-11-23 20:10:51.961,0.9414479,0.37352753,0.04993323,0.9195246,0.7778641,0.29976803,0.13787612,0.37603623,0.55531377,0.38351628,0.38288608,0.6207923,0.08299458,-0.17217492,0.013579251,0.35030797,-0.21925136,-0.4862364,-0.60158294,-0.15304941,759.92676,811.0989,807.47253,777.6557,759.5238,-0.16766357421875,0.00946044921875,1.000244140625,2.75146484375,-2.011260986328125,0.082244873046875,1,1.0,1.0,1.0,1.0,50.00
2022-11-23 20:10:51.961,0.9414479,0.37352753,0.04993323,0.9195246,0.7778641,0.29976803,0.13787612,0.37603623,0.55531377,0.38351628,0.38288608,0.6207923,0.08299458,-0.17217492,0.013579251,0.35030797,-0.21925136,-0.4862364,-0.60158294,-0.15304941,778.46155,809.89014,809.4872,805.4579,814.3223,-0.16766357421875,0.00946044921875,1.000244140625,2.75146484375,-2.011260986328125,0.082244873046875,1,1.0,1.0,1.0,1.0,50.00
2022-11-23 20:10:51.961,0.9414479,0.37352753,0.04993323,0.9195246,0.7778641,0.29976803,0.13787612,0.37603623,0.55531377,0.38351628,0.38288608,0.6207923,0.08299458,-0.17217492,0.013579251,0.35030797,-0.21925136,-0.4862364,-0.60158294,-0.15304941,850.58606,808.2784,807.0696,846.55676,921.50183,-0.16766357421875,0.00946044921875,1.000244140625,2.75146484375,-2.011260986328125,0.082244873046875,1,1.0,1.0,1.0,1.0,50.00
2022-11-23 20:10:51.961,0.9414479,0.37352753,0.04993323,0.9195246,0.7778641,0.29976803,0.13787612,0.37603623,0.55531377,0.38351628,0.38288608,0.6207923,0.08299458,-0.17217492,0.013579251,0.35030797,-0.21925136,-0.4862364,-0.60158294,-0.15304941,836.4835,807.47253,804.2491,835.6777,766.77655,-0.16766357421875,0.00946044921875,1.000244140625,2.75146484375,-2.011260986328125,0.082244873046875,1,1.0,1.0,1.0,1.0,50.00
2022-11-23 20:10:51.962,0.9414479,0.37352753,0.04993323,0.9195246,0.7778641,0.29976803,0.13787612,0.37603623,0.55531377,0.38351628,0.38288608,0.6207923,0.08299458,-0.17217492,0.013579251,0.35030797,-0.21925136,-0.4862364,-0.60158294,-0.15304941,759.12085,807.8755,804.65204,788.5348,744.21246,-0.16766357421875,0.00946044921875,1.000244140625,2.75146484375,-2.011260986328125,0.082244873046875,1,1.0,1.0,1.0,1.0,50.00
2022-11-23 20:10:51.962,0.9414479,0.37352753,0.04993323,0.9195246,0.7778641,0.29976803,0.13787612,0.37603623,0.55531377,0.38351628,0.38288608,0.6207923,0.08299458,-0.17217492,0.013579251,0.35030797,-0.21925136,-0.4862364,-0.60158294,-0.15304941,763.95605,804.2491,806.6667,802.23444,960.18317,-0.16766357421875,0.00946044921875,1.000244140625,2.75146484375,-2.011260986328125,0.082244873046875,1,1.0,1.0,1.0,1.0,50.00
2022-11-23 20:10:51.962,0.9414479,0.37352753,0.04993323,0.9195246,0.7778641,0.29976803,0.13787612,0.37603623,0.55531377,0.38351628,0.38288608,0.6207923,0.08299458,-0.17217492,0.013579251,0.35030797,-0.21925136,-0.4862364,-0.60158294,-0.15304941,838.0952,806.26373,808.68134,844.94507,892.49084,-0.16766357421875,0.00946044921875,1.000244140625,2.75146484375,-2.011260986328125,0.082244873046875,1,1.0,1.0,1.0,1.0,50.00
2022-11-23 20:10:51.963,0.9414479,0.37352753,0.04993323,0.9195246,0.7778641,0.29976803,0.13787612,0.37603623,0.55531377,0.38351628,0.38288608,0.6207923,0.08299458,-0.17217492,0.013579251,0.35030797,-0.21925136,-0.4862364,-0.60158294,-0.15304941,848.97437,807.8755,806.26373,832.8571,771.2088,-0.16766357421875,0.00946044921875,1.000244140625,2.75146484375,-2.011260986328125,0.082244873046875,1,1.0,1.0,1.0,1.0,50.00
2022-11-23 20:10:51.963,0.9414479,0.37352753,0.04993323,0.9195246,0.7778641,0.29976803,0.13787612,0.37603623,0.55531377,0.38351628,0.38288608,0.6207923,0.08299458,-0.17217492,0.013579251,0.35030797,-0.21925136,-0.4862364,-0.60158294,-0.15304941,784.5055,804.65204,805.8608,795.78754,767.5824,-0.16766357421875,0.00946044921875,1.000244140625,2.75146484375,-2.011260986328125,0.082244873046875,1,1.0,1.0,1.0,1.0,50.00
2022-11-23 20:10:51.963,0.9033018,0.3422039,0.030512294,0.91359,0.7786497,0.30425888,0.16688621,0.37368903,0.5512668,0.37996605,0.38288608,0.62287855,0.04284592,-0.1709763,0.0027548973,0.31656843,-0.21368504,-0.48653385,-0.59489024,-0.1440742,761.13556,803.8461,805.8608,784.10254,701.9048,-0.16766357421875,0.00946044921875,1.000244140625,2.75146484375,-2.011260986328125,0.082244873046875,1,1.0,1.0,1.0,1.0,50.00
2022-11-23 20:10:51.987,0.9033018,0.3422039,0.030512294,0.91359,0.7786497,0.30425888,0.16688621,0.37368903,0.5512668,0.37996605,0.38288608,0.62287855,0.04284592,-0.1709763,0.0027548973,0.31656843,-0.21368504,-0.48653385,-0.59489024,-0.1440742,819.9634,805.05493,805.4579,823.5897,720.0366,-0.1656494140625,0.0111083984375,1.01873779296875,3.050537109375,-2.6318359375,0.755157470703125,1,1.0,1.0,1.0,1.0,50.00
2022-11-23 20:10:51.987,0.9033018,0.3422039,0.030512294,0.91359,0.7786497,0.30425888,0.16688621,0.37368903,0.5512668,0.37996605,0.38288608,0.62287855,0.04284592,-0.1709763,0.0027548973,0.31656843,-0.21368504,-0.48653385,-0.59489024,-0.1440742,859.0476,804.2491,807.8755,851.39197,852.6007,-0.1656494140625,0.0111083984375,1.01873779296875,3.050537109375,-2.6318359375,0.755157470703125,1,1.0,1.0,1.0,1.0,50.00
2022-11-23 20:10:51.987,0.9033018,0.3422039,0.030512294,0.91359,0.7786497,0.30425888,0.16688621,0.37368903,0.5512668,0.37996605,0.38288608,0.62287855,0.04284592,-0.1709763,0.0027548973,0.31656843,-0.21368504,-0.48653385,-0.59489024,-0.1440742,801.8315,802.6374,807.8755,800.6227,821.978,-0.1656494140625,0.0111083984375,1.01873779296875,3.050537109375,-2.6318359375,0.755157470703125,1,1.0,1.0,1.0,1.0,50.00
2022-11-23 20:10:51.988,0.9033018,0.3422039,0.030512294,0.91359,0.7786497,0.30425888,0.16688621,0.37368903,0.5512668,0.37996605,0.38288608,0.62287855,0.04284592,-0.1709763,0.0027548973,0.31656843,-0.21368504,-0.48653385,-0.59489024,-0.1440742,752.27106,801.02563,806.26373,767.98535,654.7619,-0.1656494140625,0.0111083984375,1.01873779296875,3.050537109375,-2.6318359375,0.755157470703125,1,1.0,1.0,1.0,1.0,50.00
2022-11-23 20:10:51.988,0.9033018,0.3422039,0.030512294,0.91359,0.7786497,0.30425888,0.16688621,0.37368903,0.5512668,0.37996605,0.38288608,0.62287855,0.04284592,-0.1709763,0.0027548973,0.31656843,-0.21368504,-0.48653385,-0.59489024,-0.1440742,798.20514,804.65204,805.05493,805.8608,681.75824,-0.1656494140625,0.0111083984375,1.01873779296875,3.050537109375,-2.6318359375,0.755157470703125,1,1.0,1.0,1.0,1.0,50.00
2022-11-23 20:10:51.988,0.9033018,0.3422039,0.030512294,0.91359,0.7786497,0.30425888,0.16688621,0.37368903,0.5512668,0.37996605,0.38288608,0.62287855,0.04284592,-0.1709763,0.0027548973,0.31656843,-0.21368504,-0.48653385,-0.59489024,-0.1440742,857.4359,809.4872,804.2491,839.707,912.23444,-0.1656494140625,0.0111083984375,1.01873779296875,3.050537109375,-2.6318359375,0.755157470703125,1,1.0,1.0,1.0,1.0,50.00
2022-11-23 20:10:51.988,0.9033018,0.3422039,0.030512294,0.91359,0.7786497,0.30425888,0.16688621,0.37368903,0.5512668,0.37996605,0.38288608,0.62287855,0.04284592,-0.1709763,0.0027548973,0.31656843,-0.21368504,-0.48653385,-0.59489024,-0.1440742,828.8278,808.2784,801.4286,806.26373,952.9304,-0.1656494140625,0.0111083984375,1.01873779296875,3.050537109375,-2.6318359375,0.755157470703125,1,1.0,1.0,1.0,1.0,50.00
2022-11-23 20:10:51.989,0.9033018,0.3422039,0.030512294,0.91359,0.7786497,0.30425888,0.16688621,0.37368903,0.5512668,0.37996605,0.38288608,0.62287855,0.04284592,-0.1709763,0.0027548973,0.31656843,-0.21368504,-0.48653385,-0.59489024,-0.1440742,775.2381,809.89014,794.9817,776.4469,663.6264,-0.1656494140625,0.0111083984375,1.01873779296875,3.050537109375,-2.6318359375,0.755157470703125,1,1.0,1.0,1.0,1.0,50.00
2022-11-23 20:10:51.989,0.9033018,0.3422039,0.030512294,0.91359,0.7786497,0.30425888,0.16688621,0.37368903,0.5512668,0.37996605,0.38288608,0.62287855,0.04284592,-0.1709763,0.0027548973,0.31656843,-0.21368504,-0.48653385,-0.59489024,-0.1440742,803.8461,806.26373,796.1905,811.9048,618.0952,-0.1656494140625,0.0111083984375,1.01873779296875,3.050537109375,-2.6318359375,0.755157470703125,1,1.0,1.0,1.0,1.0,50.00
2022-11-23 20:10:51.989,0.9033018,0.3422039,0.030512294,0.91359,0.7786497,0.30425888,0.16688621,0.37368903,0.5512668,0.37996605,0.38288608,0.62287855,0.04284592,-0.1709763,0.0027548973,0.31656843,-0.21368504,-0.48653385,-0.59489024,-0.1440742,864.2857,799.81683,804.2491,851.79486,804.65204,-0.1656494140625,0.0111083984375,1.01873779296875,3.050537109375,-2.6318359375,0.755157470703125,1,1.0,1.0,1.0,1.0,50.00
2022-11-23 20:10:51.989,0.9033018,0.3422039,0.030512294,0.91359,0.7786497,0.30425888,0.16688621,0.37368903,0.5512668,0.37996605,0.38288608,0.62287855,0.04284592,-0.1709763,0.0027548973,0.31656843,-0.21368504,-0.48653385,-0.59489024,-0.1440742,836.08057,799.41394,810.293,830.0366,1067.3627,-0.1656494140625,0.0111083984375,1.01873779296875,3.050537109375,-2.6318359375,0.755157470703125,1,1.0,1.0,1.0,1.0,50.00
2022-11-23 20:10:51.990,0.9033018,0.3422039,0.030512294,0.91359,0.7786497,0.30425888,0.16688621,0.37368903,0.5512668,0.37996605,0.38288608,0.62287855,0.04284592,-0.1709763,0.0027548973,0.31656843,-0.21368504,-0.48653385,-0.59489024,-0.1440742,750.65936,801.02563,815.12823,767.1795,879.19415,-0.1656494140625,0.0111083984375,1.01873779296875,3.050537109375,-2.6318359375,0.755157470703125,1,1.0,1.0,1.0,1.0,50.00
2022-11-23 20:10:52.033,0.9033018,0.3422039,0.030512294,0.91359,0.7786497,0.30425888,0.16688621,0.37368903,0.5512668,0.37996605,0.38288608,0.62287855,0.04284592,-0.1709763,0.0027548973,0.31656843,-0.21368504,-0.48653385,-0.59489024,-0.1440742,745.42126,801.4286,821.978,766.3736,599.15753,-0.185302734375,0.018310546875,1.01446533203125,0.52337646484375,-1.398162841796875,0.396270751953125,1,1.0,1.0,1.0,1.0,50.00
2022-11-23 20:10:52.033,0.9033018,0.3422039,0.030512294,0.91359,0.7786497,0.30425888,0.16688621,0.37368903,0.5512668,0.37996605,0.38288608,0.62287855,0.04284592,-0.1709763,0.0027548973,0.31656843,-0.21368504,-0.48653385,-0.59489024,-0.1440742,811.0989,796.1905,828.4249,813.1135,784.90845,-0.185302734375,0.018310546875,1.01446533203125,0.52337646484375,-1.398162841796875,0.396270751953125,1,1.0,1.0,1.0,1.0,50.00
2022-11-23 20:10:52.033,0.9033018,0.3422039,0.030512294,0.91359,0.7786497,0.30425888,0.16688621,0.37368903,0.5512668,0.37996605,0.38288608,0.62287855,0.04284592,-0.1709763,0.0027548973,0.31656843,-0.21368504,-0.48653385,-0.59489024,-0.1440742,807.8755,790.9524,828.022,799.41394,890.07324,-0.185302734375,0.018310546875,1.01446533203125,0.52337646484375,-1.398162841796875,0.396270751953125,1,1.0,1.0,1.0,1.0,50.00
2022-11-23 20:10:52.034,0.9033018,0.3422039,0.030512294,0.91359,0.7786497,0.30425888,0.16688621,0.37368903,0.5512668,0.37996605,0.38288608,0.62287855,0.04284592,-0.1709763,0.0027548973,0.31656843,-0.21368504,-0.48653385,-0.59489024,-0.1440742,733.3333,786.9231,830.84247,751.8681,722.0513,-0.185302734375,0.018310546875,1.01446533203125,0.52337646484375,-1.398162841796875,0.396270751953125,1,1.0,1.0,1.0,1.0,50.00
2022-11-23 20:10:52.034,0.9033018,0.3422039,0.030512294,0.91359,0.7786497,0.30425888,0.16688621,0.37368903,0.5512668,0.37996605,0.38288608,0.62287855,0.04284592,-0.1709763,0.0027548973,0.31656843,-0.21368504,-0.48653385,-0.59489024,-0.1440742,703.91943,784.10254,838.9011,737.76556,579.011,-0.185302734375,0.018310546875,1.01446533203125,0.52337646484375,-1.398162841796875,0.396270751953125,1,1.0,1.0,1.0,1.0,50.00
2022-11-23 20:10:52.034,0.9033018,0.3422039,0.030512294,0.91359,0.7786497,0.30425888,0.16688621,0.37368903,0.5512668,0.37996605,0.38288608,0.62287855,0.04284592,-0.1709763,0.0027548973,0.31656843,-0.21368504,-0.48653385,-0.59489024,-0.1440742,749.45056,782.0879,839.707,763.95605,807.0696,-0.185302734375,0.018310546875,1.01446533203125,0.52337646484375,-1.398162841796875,0.396270751953125,1,1.0,1.0,1.0,1.0,50.00
2022-11-23 20:10:52.034,0.9033018,0.3422039,0.030512294,0.91359,0.7786497,0.30425888,0.16688621,0.37368903,0.5512668,0.37996605,0.38288608,0.62287855,0.04284592,-0.1709763,0.0027548973,0.31656843,-0.21368504,-0.48653385,-0.59489024,-0.1440742,782.49084,779.2674,836.8865,782.0879,1035.9341,-0.185302734375,0.018310546875,1.01446533203125,0.52337646484375,-1.398162841796875,0.396270751953125,1,1.0,1.0,1.0,1.0,50.00
2022-11-23 20:10:52.035,0.9033018,0.3422039,0.030512294,0.91359,0.7786497,0.30425888,0.16688621,0.37368903,0.5512668,0.37996605,0.38288608,0.62287855,0.04284592,-0.1709763,0.0027548973,0.31656843,-0.21368504,-0.48653385,-0.59489024,-0.1440742,736.1539,776.04395,840.5128,746.2271,898.1319,-0.185302734375,0.018310546875,1.01446533203125,0.52337646484375,-1.398162841796875,0.396270751953125,1,1.0,1.0,1.0,1.0,50.00
2022-11-23 20:10:52.035,0.9033018,0.3422039,0.030512294,0.91359,0.7786497,0.30425888,0.16688621,0.37368903,0.5512668,0.37996605,0.38288608,0.62287855,0.04284592,-0.1709763,0.0027548973,0.31656843,-0.21368504,-0.48653385,-0.59489024,-0.1440742,676.52014,774.0293,838.0952,711.978,698.2784,-0.185302734375,0.018310546875,1.01446533203125,0.52337646484375,-1.398162841796875,0.396270751953125,1,1.0,1.0,1.0,1.0,50.00
2022-11-23 20:10:52.035,0.9033018,0.3422039,0.030512294,0.91359,0.7786497,0.30425888,0.16688621,0.37368903,0.5512668,0.37996605,0.38288608,0.62287855,0.04284592,-0.1709763,0.0027548973,0.31656843,-0.21368504,-0.48653385,-0.59489024,-0.1440742,702.3077,773.6264,838.9011,743.00366,832.8571,-0.185302734375,0.018310546875,1.01446533203125,0.52337646484375,-1.398162841796875,0.396270751953125,1,1.0,1.0,1.0,1.0,50.00
2022-11-23 20:10:52.035,0.9033018,0.3422039,0.030512294,0.91359,0.7786497,0.30425888,0.16688621,0.37368903,0.5512668,0.37996605,0.38288608,0.62287855,0.04284592,-0.1709763,0.0027548973,0.31656843,-0.21368504,-0.48653385,-0.59489024,-0.1440742,758.315,773.6264,846.55676,771.6117,1048.8279,-0.185302734375,0.018310546875,1.01446533203125,0.52337646484375,-1.398162841796875,0.396270751953125,1,1.0,1.0,1.0,1.0,50.00
2022-11-23 20:10:52.035,0.9033018,0.3422039,0.030512294,0.91359,0.7786497,0.30425888,0.16688621,0.37368903,0.5512668,0.37996605,0.38288608,0.62287855,0.04284592,-0.1709763,0.0027548973,0.31656843,-0.21368504,-0.48653385,-0.59489024,-0.1440742,745.0183,771.6117,844.5421,750.2564,992.4176,-0.185302734375,0.018310546875,1.01446533203125,0.52337646484375,-1.398162841796875,0.396270751953125,1,1.0,1.0,1.0,1.0,50.00
2022-11-23 20:10:52.107,0.9033018,0.3422039,0.030512294,0.91359,0.7786497,0.30425888,0.16688621,0.37368903,0.5512668,0.37996605,0.38288608,0.62287855,0.04284592,-0.1709763,0.0027548973,0.31656843,-0.21368504,-0.48653385,-0.59489024,-0.1440742,681.3553,774.0293,845.7509,707.9487,807.0696,-0.19256591796875,0.01092529296875,1.00225830078125,-2.7813720703125,-1.734619140625,-6.063690185546875,1,1.0,1.0,1.0,1.0,50.00
2022-11-23 20:10:52.107,0.9033018,0.31007522,0.008479751,0.92533386,0.7786497,0.30940107,0.20436794,0.38226032,0.5512668,0.37996605,0.4209343,0.61588246,0.04284592,-0.16432,-0.011746314,0.29282516,-0.21368504,-0.49467477,-0.58916485,-0.14329053,681.75824,774.43225,847.76556,721.2454,738.97437,-0.19256591796875,0.01092529296875,1.00225830078125,-2.7813720703125,-1.734619140625,-6.063690185546875,1,1.0,1.0,1.0,1.0,50.00
2022-11-23 20:10:52.108,0.9033018,0.31007522,0.008479751,0.92533386,0.7786497,0.30940107,0.20436794,0.38226032,0.5512668,0.37996605,0.4209343,0.61588246,0.04284592,-0.16432,-0.011746314,0.29282516,-0.21368504,-0.49467477,-0.58916485,-0.14329053,762.3443,771.2088,847.3626,777.25275,839.707,-0.19256591796875,0.01092529296875,1.00225830078125,-2.7813720703125,-1.734619140625,-6.063690185546875,1,1.0,1.0,1.0,1.0,50.00
2022-11-23 20:10:52.108,0.9033018,0.31007522,0.008479751,0.92533386,0.7786497,0.30940107,0.20436794,0.38226032,0.5512668,0.37996605,0.4209343,0.61588246,0.04284592,-0.16432,-0.011746314,0.29282516,-0.21368504,-0.49467477,-0.58916485,-0.14329053,772.8205,770.40295,846.1539,771.6117,821.1722,-0.19256591796875,0.01092529296875,1.00225830078125,-2.7813720703125,-1.734619140625,-6.063690185546875,1,1.0,1.0,1.0,1.0,50.00
2022-11-23 20:10:52.109,0.9033018,0.31007522,0.008479751,0.92533386,0.7786497,0.30940107,0.20436794,0.38226032,0.5512668,0.37996605,0.4209343,0.61588246,0.04284592,-0.16432,-0.011746314,0.29282516,-0.21368504,-0.49467477,-0.58916485,-0.14329053,693.0403,771.2088,844.1392,712.381,655.56775,-0.19256591796875,0.01092529296875,1.00225830078125,-2.7813720703125,-1.734619140625,-6.063690185546875,1,1.0,1.0,1.0,1.0,50.00
2022-11-23 20:10:52.109,0.9033018,0.31007522,0.008479751,0.92533386,0.7786497,0.30940107,0.20436794,0.38226032,0.5512668,0.37996605,0.4209343,0.61588246,0.04284592,-0.16432,-0.011746314,0.29282516,-0.21368504,-0.49467477,-0.58916485,-0.14329053,675.7143,764.7619,848.5714,711.5751,680.54944,-0.19256591796875,0.01092529296875,1.00225830078125,-2.7813720703125,-1.734619140625,-6.063690185546875,1,1.0,1.0,1.0,1.0,50.00
2022-11-23 20:10:52.109,0.9033018,0.31007522,0.008479751,0.92533386,0.7786497,0.30940107,0.20436794,0.38226032,0.5512668,0.37996605,0.4209343,0.61588246,0.04284592,-0.16432,-0.011746314,0.29282516,-0.21368504,-0.49467477,-0.58916485,-0.14329053,749.0476,763.5531,852.1978,769.19415,888.86444,-0.19256591796875,0.01092529296875,1.00225830078125,-2.7813720703125,-1.734619140625,-6.063690185546875,1,1.0,1.0,1.0,1.0,50.00
2022-11-23 20:10:52.109,0.9033018,0.31007522,0.008479751,0.92533386,0.7786497,0.30940107,0.20436794,0.38226032,0.5512668,0.37996605,0.4209343,0.61588246,0.04284592,-0.16432,-0.011746314,0.29282516,-0.21368504,-0.49467477,-0.58916485,-0.14329053,778.86444,765.16486,855.0183,776.04395,863.47986,-0.19256591796875,0.01092529296875,1.00225830078125,-2.7813720703125,-1.734619140625,-6.063690185546875,1,1.0,1.0,1.0,1.0,50.00
2022-11-23 20:10:52.110,0.9033018,0.31007522,0.008479751,0.92533386,0.7786497,0.30940107,0.20436794,0.38226032,0.5512668,0.37996605,0.4209343,0.61588246,0.04284592,-0.16432,-0.011746314,0.29282516,-0.21368504,-0.49467477,-0.58916485,-0.14329053,727.28937,764.7619,851.39197,734.5421,724.4689,-0.19256591796875,0.01092529296875,1.00225830078125,-2.7813720703125,-1.734619140625,-6.063690185546875,1,1.0,1.0,1.0,1.0,50.00
2022-11-23 20:10:52.110,0.9033018,0.31007522,0.008479751,0.92533386,0.7786497,0.30940107,0.20436794,0.38226032,0.5512668,0.37996605,0.4209343,0.61588246,0.04284592,-0.16432,-0.011746314,0.29282516,-0.21368504,-0.49467477,-0.58916485,-0.14329053,705.9341,768.7912,848.1685,735.34796,874.35895,-0.19256591796875,0.01092529296875,1.00225830078125,-2.7813720703125,-1.734619140625,-6.063690185546875,1,1.0,1.0,1.0,1.0,50.00
2022-11-23 20:10:52.110,0.9033018,0.31007522,0.008479751,0.92533386,0.7786497,0.30940107,0.20436794,0.38226032,0.5512668,0.37996605,0.4209343,0.61588246,0.04284592,-0.16432,-0.011746314,0.29282516,-0.21368504,-0.49467477,-0.58916485,-0.14329053,757.9121,769.59705,850.18317,778.0586,899.34064,-0.19256591796875,0.01092529296875,1.00225830078125,-2.7813720703125,-1.734619140625,-6.063690185546875,1,1.0,1.0,1.0,1.0,50.00
2022-11-23 20:10:52.110,0.9033018,0.31007522,0.008479751,0.92533386,0.7786497,0.30940107,0.20436794,0.38226032,0.5512668,0.37996605,0.4209343,0.61588246,0.04284592,-0.16432,-0.011746314,0.29282516,-0.21368504,-0.49467477,-0.58916485,-0.14329053,809.4872,765.9707,842.9304,801.02563,882.01465,-0.19256591796875,0.01092529296875,1.00225830078125,-2.7813720703125,-1.734619140625,-6.063690185546875,1,1.0,1.0,1.0,1.0,50.00
2022-11-23 20:10:52.133,0.9033018,0.31007522,0.008479751,0.92533386,0.7786497,0.30940107,0.20436794,0.38226032,0.5512668,0.37996605,0.4209343,0.61588246,0.04284592,-0.16432,-0.011746314,0.29282516,-0.21368504,-0.49467477,-0.58916485,-0.14329053,773.22345,765.9707,842.9304,770.80585,847.3626,-0.19256591796875,0.01092529296875,1.00225830078125,-2.7813720703125,-1.734619140625,-6.063690185546875,1,1.0,1.0,1.0,1.0,50.00
2022-11-23 20:10:52.133,0.9033018,0.31007522,0.008479751,0.92533386,0.7786497,0.30940107,0.20436794,0.38226032,0.5512668,0.37996605,0.4209343,0.61588246,0.04284592,-0.16432,-0.011746314,0.29282516,-0.21368504,-0.49467477,-0.58916485,-0.14329053,711.1722,770.80585,845.34796,745.42126,657.1795,-0.19256591796875,0.01092529296875,1.00225830078125,-2.7813720703125,-1.734619140625,-6.063690185546875,1,1.0,1.0,1.0,1.0,50.00
2022-11-23 20:10:52.133,0.9033018,0.31007522,0.008479751,0.92533386,0.7786497,0.30940107,0.20436794,0.38226032,0.5512668,0.37996605,0.4209343,0.61588246,0.04284592,-0.16432,-0.011746314,0.29282516,-0.21368504,-0.49467477,-0.58916485,-0.14329053,739.3773,772.8205,840.10986,778.46155,757.1062,-0.19256591796875,0.01092529296875,1.00225830078125,-2.7813720703125,-1.734619140625,-6.063690185546875,1,1.0,1.0,1.0,1.0,50.00
2022-11-23 20:10:52.134,0.9033018,0.31007522,0.008479751,0.92533386,0.7786497,0.30940107,0.20436794,0.38226032,0.5512668,0.37996605,0.4209343,0.61588246,0.04284592,-0.16432,-0.011746314,0.29282516,-0.21368504,-0.49467477,-0.58916485,-0.14329053,814.7253,772.01465,837.6923,826.0073,923.1135,-0.19256591796875,0.01092529296875,1.00225830078125,-2.7813720703125,-1.734619140625,-6.063690185546875,1,1.0,1.0,1.0,1.0,50.00
2022-11-23 20:10:52.134,0.9033018,0.31007522,0.008479751,0.92533386,0.7786497,0.30940107,0.20436794,0.38226032,0.5512668,0.37996605,0.4209343,0.61588246,0.04284592,-0.16432,-0.011746314,0.29282516,-0.21368504,-0.49467477,-0.58916485,-0.14329053,803.8461,777.25275,841.31866,805.05493,869.5238,-0.19256591796875,0.01092529296875,1.00225830078125,-2.7813720703125,-1.734619140625,-6.063690185546875,1,1.0,1.0,1.0,1.0,50.00
2022-11-23 20:10:52.134,0.9033018,0.31007522,0.008479751,0.92533386,0.7786497,0.30940107,0.20436794,0.38226032,0.5512668,0.37996605,0.4209343,0.61588246,0.04284592,-0.16432,-0.011746314,0.29282516,-0.21368504,-0.49467477,-0.58916485,-0.14329053,734.94507,776.04395,840.9158,767.5824,765.9707,-0.19256591796875,0.01092529296875,1.00225830078125,-2.7813720703125,-1.734619140625,-6.063690185546875,1,1.0,1.0,1.0,1.0,50.00
2022-11-23 20:10:52.134,0.9033018,0.31007522,0.008479751,0.92533386,0.7786497,0.30940107,0.20436794,0.38226032,0.5512668,0.37996605,0.4209343,0.61588246,0.04284592,-0.16432,-0.011746314,0.29282516,-0.21368504,-0.49467477,-0.58916485,-0.14329053,739.3773,774.0293,835.6777,777.25275,763.5531,-0.19256591796875,0.01092529296875,1.00225830078125,-2.7813720703125,-1.734619140625,-6.063690185546875,1,1.0,1.0,1.0,1.0,50.00
2022-11-23 20:10:52.135,0.9033018,0.31007522,0.008479751,0.92533386,0.7786497,0.30940107,0.20436794,0.38226032,0.5512668,0.37996605,0.4209343,0.61588246,0.04284592,-0.16432,-0.011746314,0.29282516,-0.21368504,-0.49467477,-0.58916485,-0.14329053,814.7253,775.64105,834.0659,819.9634,838.0952,-0.19256591796875,0.01092529296875,1.00225830078125,-2.7813720703125,-1.734619140625,-6.063690185546875,1,1.0,1.0,1.0,1.0,50.00
2022-11-23 20:10:52.135,0.9033018,0.31007522,0.008479751,0.92533386,0.7786497,0.30940107,0.20436794,0.38226032,0.5512668,0.37996605,0.4209343,0.61588246,0.04284592,-0.16432,-0.011746314,0.29282516,-0.21368504,-0.49467477,-0.58916485,-0.14329053,828.4249,774.83514,830.84247,829.6337,979.5238,-0.19256591796875,0.01092529296875,1.00225830078125,-2.7813720703125,-1.734619140625,-6.063690185546875,1,1.0,1.0,1.0,1.0,50.00
2022-11-23 20:10:52.135,0.9033018,0.31007522,0.008479751,0.92533386,0.7786497,0.30940107,0.20436794,0.38226032,0.5512668,0.37996605,0.4209343,0.61588246,0.04284592,-0.16432,-0.011746314,0.29282516,-0.21368504,-0.49467477,-0.58916485,-0.14329053,758.315,780.87915,830.4396,784.90845,1000.07324,-0.19256591796875,0.01092529296875,1.00225830078125,-2.7813720703125,-1.734619140625,-6.063690185546875,1,1.0,1.0,1.0,1.0,50.00
2022-11-23 20:10:52.135,0.9033018,0.31007522,0.008479751,0.92533386,0.7786497,0.30940107,0.20436794,0.38226032,0.5512668,0.37996605,0.4209343,0.61588246,0.04284592,-0.16432,-0.011746314,0.29282516,-0.21368504,-0.49467477,-0.58916485,-0.14329053,742.6007,782.49084,834.0659,773.6264,824.7985,-0.19256591796875,0.01092529296875,1.00225830078125,-2.7813720703125,-1.734619140625,-6.063690185546875,1,1.0,1.0,1.0,1.0,50.00
2022-11-23 20:10:52.136,0.9033018,0.31007522,0.008479751,0.92533386,0.7786497,0.30940107,0.20436794,0.38226032,0.5512668,0.37996605,0.4209343,0.61588246,0.04284592,-0.16432,-0.011746314,0.29282516,-0.21368504,-0.49467477,-0.58916485,-0.14329053,809.0842,781.28204,829.6337,816.7399,791.75824,-0.19256591796875,0.01092529296875,1.00225830078125,-2.7813720703125,-1.734619140625,-6.063690185546875,1,1.0,1.0,1.0,1.0,50.00
2022-11-23 20:10:52.186,0.9033018,0.31007522,0.008479751,0.92533386,0.7786497,0.30940107,0.20436794,0.38226032,0.5512668,0.37996605,0.4209343,0.61588246,0.04284592,-0.16432,-0.011746314,0.29282516,-0.21368504,-0.49467477,-0.58916485,-0.14329053,848.5714,780.87915,822.381,834.87177,902.96704,-0.17626953125,-0.015380859375,0.983642578125,-3.06549072265625,-1.816864013671875,-7.932891845703125,1,1.0,1.0,1.0,1.0,50.00
2022-11-23 20:10:52.186,0.9033018,0.31007522,0.008479751,0.92533386,0.7786497,0.30940107,0.20436794,0.38226032,0.5512668,0.37996605,0.4209343,0.61588246,0.04284592,-0.16432,-0.011746314,0.29282516,-0.21368504,-0.49467477,-0.58916485,-0.14329053,792.96704,783.69965,821.978,800.6227,830.84247,-0.17626953125,-0.015380859375,0.983642578125,-3.06549072265625,-1.816864013671875,-7.932891845703125,1,1.0,1.0,1.0,1.0,50.00
2022-11-23 20:10:52.187,0.9033018,0.31007522,0.008479751,0.92533386,0.7786497,0.30940107,0.20436794,0.38226032,0.5512668,0.37996605,0.4209343,0.61588246,0.04284592,-0.16432,-0.011746314,0.29282516,-0.21368504,-0.49467477,-0.58916485,-0.14329053,750.2564,784.10254,824.7985,782.49084,588.2784,-0.17626953125,-0.015380859375,0.983642578125,-3.06549072265625,-1.816864013671875,-7.932891845703125,1,1.0,1.0,1.0,1.0,50.00
2022-11-23 20:10:52.187,0.9033018,0.3070096,0.06219239,0.93124044,0.7786497,0.31268275,0.23986974,0.3938353,0.5512668,0.37996605,0.43262854,0.6054467,0.04284592,-0.15444282,-0.028214749,0.26590556,-0.21368504,-0.50798327,-0.59129125,-0.14629011,799.41394,783.69965,821.978,817.9487,647.1062,-0.17626953125,-0.015380859375,0.983642578125,-3.06549072265625,-1.816864013671875,-7.932891845703125,1,1.0,1.0,1.0,1.0,50.00
2022-11-23 20:10:52.188,0.9033018,0.3070096,0.06219239,0.93124044,0.7786497,0.31268275,0.23986974,0.3938353,0.5512668,0.37996605,0.43262854,0.6054467,0.04284592,-0.15444282,-0.028214749,0.26590556,-0.21368504,-0.50798327,-0.59129125,-0.14629011,857.4359,783.69965,816.7399,848.97437,844.1392,-0.17626953125,-0.015380859375,0.983642578125,-3.06549072265625,-1.816864013671875,-7.932891845703125,1,1.0,1.0,1.0,1.0,50.00
2022-11-23 20:10:52.189,0.9033018,0.3070096,0.06219239,0.93124044,0.7786497,0.31268275,0.23986974,0.3938353,0.5512668,0.37996605,0.43262854,0.6054467,0.04284592,-0.15444282,-0.028214749,0.26590556,-0.21368504,-0.50798327,-0.59129125,-0.14629011,819.9634,784.90845,811.50183,817.9487,827.619,-0.17626953125,-0.015380859375,0.983642578125,-3.06549072265625,-1.816864013671875,-7.932891845703125,1,1.0,1.0,1.0,1.0,50.00
2022-11-23 20:10:52.189,0.9033018,0.3070096,0.06219239,0.93124044,0.7786497,0.31268275,0.23986974,0.3938353,0.5512668,0.37996605,0.43262854,0.6054467,0.04284592,-0.15444282,-0.028214749,0.26590556,-0.21368504,-0.50798327,-0.59129125,-0.14629011,750.2564,787.72894,809.0842,776.8498,661.2088,-0.17626953125,-0.015380859375,0.983642578125,-3.06549072265625,-1.816864013671875,-7.932891845703125,1,1.0,1.0,1.0,1.0,50.00
2022-11-23 20:10:52.189,0.9033018,0.3070096,0.06219239,0.93124044,0.7786497,0.31268275,0.23986974,0.3938353,0.5512668,0.37996605,0.43262854,0.6054467,0.04284592,-0.15444282,-0.028214749,0.26590556,-0.21368504,-0.50798327,-0.59129125,-0.14629011,780.4762,789.34064,811.0989,801.02563,693.0403,-0.17626953125,-0.015380859375,0.983642578125,-3.06549072265625,-1.816864013671875,-7.932891845703125,1,1.0,1.0,1.0,1.0,50.00
2022-11-23 20:10:52.189,0.9033018,0.3070096,0.06219239,0.93124044,0.7786497,0.31268275,0.23986974,0.3938353,0.5512668,0.37996605,0.43262854,0.6054467,0.04284592,-0.15444282,-0.028214749,0.26590556,-0.21368504,-0.50798327,-0.59129125,-0.14629011,860.2564,790.54944,811.0989,856.63007,1070.1831,-0.17626953125,-0.015380859375,0.983642578125,-3.06549072265625,-1.816864013671875,-7.932891845703125,1,1.0,1.0,1.0,1.0,50.00
2022-11-23 20:10:52.190,0.9033018,0.3070096,0.06219239,0.93124044,0.7786497,0.31268275,0.23986974,0.3938353,0.5512668,0.37996605,0.43262854,0.6054467,0.04284592,-0.15444282,-0.028214749,0.26590556,-0.21368504,-0.50798327,-0.59129125,-0.14629011,854.21246,799.81683,814.3223,846.55676,1083.0769,-0.17626953125,-0.015380859375,0.983642578125,-3.06549072265625,-1.816864013671875,-7.932891845703125,1,1.0,1.0,1.0,1.0,50.00
2022-11-23 20:10:52.190,0.9033018,0.3070096,0.06219239,0.93124044,0.7786497,0.31268275,0.23986974,0.3938353,0.5512668,0.37996605,0.43262854,0.6054467,0.04284592,-0.15444282,-0.028214749,0.26590556,-0.21368504,-0.50798327,-0.59129125,-0.14629011,785.7143,804.2491,815.9341,789.34064,708.3516,-0.17626953125,-0.015380859375,0.983642578125,-3.06549072265625,-1.816864013671875,-7.932891845703125,1,1.0,1.0,1.0,1.0,50.00
2022-11-23 20:10:52.190,0.9033018,0.3070096,0.06219239,0.93124044,0.7786497,0.31268275,0.23986974,0.3938353,0.5512668,0.37996605,0.43262854,0.6054467,0.04284592,-0.15444282,-0.028214749,0.26590556,-0.21368504,-0.50798327,-0.59129125,-0.14629011,790.54944,797.8022,810.293,800.2198,617.28937,-0.17626953125,-0.015380859375,0.983642578125,-3.06549072265625,-1.816864013671875,-7.932891845703125,1,1.0,1.0,1.0,1.0,50.00
2022-11-23 20:10:52.212,0.9033018,0.3070096,0.06219239,0.93124044,0.7786497,0.31268275,0.23986974,0.3938353,0.5512668,0.37996605,0.43262854,0.6054467,0.04284592,-0.15444282,-0.028214749,0.26590556,-0.21368504,-0.50798327,-0.59129125,-0.14629011,860.2564,793.7729,803.0403,852.6007,793.7729,-0.16937255859375,-0.03814697265625,0.99993896484375,-0.411224365234375,-2.7215576171875,-3.790740966796875,1,1.0,1.0,1.0,1.0,50.00
2022-11-23 20:10:52.213,0.9033018,0.3070096,0.06219239,0.93124044,0.7786497,0.31268275,0.23986974,0.3938353,0.5512668,0.37996605,0.43262854,0.6054467,0.04284592,-0.15444282,-0.028214749,0.26590556,-0.21368504,-0.50798327,-0.59129125,-0.14629011,868.71796,794.57874,802.23444,850.18317,872.74725,-0.16937255859375,-0.03814697265625,0.99993896484375,-0.411224365234375,-2.7215576171875,-3.790740966796875,1,1.0,1.0,1.0,1.0,50.00
2022-11-23 20:10:52.213,0.9033018,0.3070096,0.06219239,0.93124044,0.7786497,0.31268275,0.23986974,0.3938353,0.5512668,0.37996605,0.43262854,0.6054467,0.04284592,-0.15444282,-0.028214749,0.26590556,-0.21368504,-0.50798327,-0.59129125,-0.14629011,799.41394,796.5934,805.05493,803.0403,678.1319,-0.16937255859375,-0.03814697265625,0.99993896484375,-0.411224365234375,-2.7215576171875,-3.790740966796875,1,1.0,1.0,1.0,1.0,50.00
2022-11-23 20:10:52.213,0.9033018,0.3070096,0.06219239,0.93124044,0.7786497,0.31268275,0.23986974,0.3938353,0.5512668,0.37996605,0.43262854,0.6054467,0.04284592,-0.15444282,-0.028214749,0.26590556,-0.21368504,-0.50798327,-0.59129125,-0.14629011,776.04395,799.81683,807.47253,798.60803,585.05493,-0.16937255859375,-0.03814697265625,0.99993896484375,-0.411224365234375,-2.7215576171875,-3.790740966796875,1,1.0,1.0,1.0,1.0,50.00
2022-11-23 20:10:52.214,0.9033018,0.3070096,0.06219239,0.93124044,0.7786497,0.31268275,0.23986974,0.3938353,0.5512668,0.37996605,0.43262854,0.6054467,0.04284592,-0.15444282,-0.028214749,0.26590556,-0.21368504,-0.50798327,-0.59129125,-0.14629011,837.6923,804.2491,810.293,844.5421,762.3443,-0.16937255859375,-0.03814697265625,0.99993896484375,-0.411224365234375,-2.7215576171875,-3.790740966796875,1,1.0,1.0,1.0,1.0,50.00
2022-11-23 20:10:52.214,0.9033018,0.3070096,0.06219239,0.93124044,0.7786497,0.31268275,0.23986974,0.3938353,0.5512668,0.37996605,0.43262854,0.6054467,0.04284592,-0.15444282,-0.028214749,0.26590556,-0.21368504,-0.50798327,-0.59129125,-0.14629011,886.04395,803.44324,813.5165,865.09155,954.1392,-0.16937255859375,-0.03814697265625,0.99993896484375,-0.411224365234375,-2.7215576171875,-3.790740966796875,1,1.0,1.0,1.0,1.0,50.00
2022-11-23 20:10:52.214,0.9033018,0.3070096,0.06219239,0.93124044,0.7786497,0.31268275,0.23986974,0.3938353,0.5512668,0.37996605,0.43262854,0.6054467,0.04284592,-0.15444282,-0.028214749,0.26590556,-0.21368504,-0.50798327,-0.59129125,-0.14629011,834.4689,804.2491,813.5165,826.0073,793.36993,-0.16937255859375,-0.03814697265625,0.99993896484375,-0.411224365234375,-2.7215576171875,-3.790740966796875,1,1.0,1.0,1.0,1.0,50.00
2022-11-23 20:10:52.214,0.9033018,0.3070096,0.06219239,0.93124044,0.7786497,0.31268275,0.23986974,0.3938353,0.5512668,0.37996605,0.43262854,0.6054467,0.04284592,-0.15444282,-0.028214749,0.26590556,-0.21368504,-0.50798327,-0.59129125,-0.14629011,770.80585,807.0696,811.50183,799.81683,681.3553,-0.16937255859375,-0.03814697265625,0.99993896484375,-0.411224365234375,-2.7215576171875,-3.790740966796875,1,1.0,1.0,1.0,1.0,50.00
2022-11-23 20:10:52.215,0.9033018,0.3070096,0.06219239,0.93124044,0.7786497,0.31268275,0.23986974,0.3938353,0.5512668,0.37996605,0.43262854,0.6054467,0.04284592,-0.15444282,-0.028214749,0.26590556,-0.21368504,-0.50798327,-0.59129125,-0.14629011,806.6667,804.2491,809.89014,840.5128,1024.652,-0.16937255859375,-0.03814697265625,0.99993896484375,-0.411224365234375,-2.7215576171875,-3.790740966796875,1,1.0,1.0,1.0,1.0,50.00
2022-11-23 20:10:52.215,0.9033018,0.3070096,0.06219239,0.93124044,0.7786497,0.31268275,0.23986974,0.3938353,0.5512668,0.37996605,0.43262854,0.6054467,0.04284592,-0.15444282,-0.028214749,0.26590556,-0.21368504,-0.50798327,-0.59129125,-0.14629011,880.0,805.05493,811.50183,874.7619,986.77655,-0.16937255859375,-0.03814697265625,0.99993896484375,-0.411224365234375,-2.7215576171875,-3.790740966796875,1,1.0,1.0,1.0,1.0,50.00
2022-11-23 20:10:52.215,0.9033018,0.3070096,0.06219239,0.93124044,0.7786497,0.31268275,0.23986974,0.3938353,0.5512668,0.37996605,0.43262854,0.6054467,0.04284592,-0.15444282,-0.028214749,0.26590556,-0.21368504,-0.50798327,-0.59129125,-0.14629011,848.97437,804.2491,813.91943,838.0952,879.59705,-0.16937255859375,-0.03814697265625,0.99993896484375,-0.411224365234375,-2.7215576171875,-3.790740966796875,1,1.0,1.0,1.0,1.0,50.00
2022-11-23 20:10:52.215,0.9033018,0.3070096,0.06219239,0.93124044,0.7786497,0.31268275,0.23986974,0.3938353,0.5512668,0.37996605,0.43262854,0.6054467,0.04284592,-0.15444282,-0.028214749,0.26590556,-0.21368504,-0.50798327,-0.59129125,-0.14629011,768.7912,806.26373,811.0989,792.5641,906.1905,-0.16937255859375,-0.03814697265625,0.99993896484375,-0.411224365234375,-2.7215576171875,-3.790740966796875,1,1.0,1.0,1.0,1.0,50.00
2022-11-23 20:10:52.259,0.9033018,0.3070096,0.06219239,0.93124044,0.7786497,0.31268275,0.23986974,0.3938353,0.5512668,0.37996605,0.43262854,0.6054467,0.04284592,-0.15444282,-0.028214749,0.26590556,-0.21368504,-0.50798327,-0.59129125,-0.14629011,794.9817,809.89014,807.47253,820.7692,827.2161,-0.15374755859375,-0.03228759765625,1.00506591796875,3.39447021484375,-2.91595458984375,2.998199462890625,1,1.0,1.0,1.0,1.0,50.00
2022-11-23 20:10:52.259,0.9033018,0.3070096,0.06219239,0.93124044,0.7786497,0.31268275,0.23986974,0.3938353,0.5512668,0.37996605,0.43262854,0.6054467,0.04284592,-0.15444282,-0.028214749,0.26590556,-0.21368504,-0.50798327,-0.59129125,-0.14629011,873.95605,808.68134,807.0696,866.30035,900.54944,-0.15374755859375,-0.03228759765625,1.00506591796875,3.39447021484375,-2.91595458984375,2.998199462890625,1,1.0,1.0,1.0,1.0,50.00
2022-11-23 20:10:52.259,0.9033018,0.3070096,0.06219239,0.93124044,0.7786497,0.31268275,0.23986974,0.3938353,0.5512668,0.37996605,0.43262854,0.6054467,0.04284592,-0.15444282,-0.028214749,0.26590556,-0.21368504,-0.50798327,-0.59129125,-0.14629011,863.47986,804.2491,804.65204,851.39197,968.24176,-0.15374755859375,-0.03228759765625,1.00506591796875,3.39447021484375,-2.91595458984375,2.998199462890625,1,1.0,1.0,1.0,1.0,50.00
2022-11-23 20:10:52.260,0.9033018,0.3070096,0.06219239,0.93124044,0.7786497,0.31268275,0.23986974,0.3938353,0.5512668,0.37996605,0.43262854,0.6054467,0.04284592,-0.15444282,-0.028214749,0.26590556,-0.21368504,-0.50798327,-0.59129125,-0.14629011,786.9231,803.8461,802.6374,798.60803,727.6923,-0.15374755859375,-0.03228759765625,1.00506591796875,3.39447021484375,-2.91595458984375,2.998199462890625,1,1.0,1.0,1.0,1.0,50.00
2022-11-23 20:10:52.260,0.9033018,0.3070096,0.06219239,0.93124044,0.7786497,0.31268275,0.23986974,0.3938353,0.5512668,0.37996605,0.43262854,0.6054467,0.04284592,-0.15444282,-0.028214749,0.26590556,-0.21368504,-0.50798327,-0.59129125,-0.14629011,776.4469,803.44324,799.41394,798.60803,623.73627,-0.15374755859375,-0.03228759765625,1.00506591796875,3.39447021484375,-2.91595458984375,2.998199462890625,1,1.0,1.0,1.0,1.0,50.00
2022-11-23 20:10:52,,,,,,,,,,,,,,,,,,,,,,,,,,,,,,,,,,,,,,/muse/elements/blink
2022-11-23 20:10:52.260,0.9033018,0.37495956,0.24867588,0.92259806,0.7786497,0.31409383,0.28517625,0.40856737,0.5512668,0.37996605,0.42260286,0.5947761,0.04284592,-0.14345177,-0.040122673,0.23702928,-0.21368504,-0.5205638,-0.59956324,-0.15317671,849.7802,803.44324,801.8315,848.97437,821.978,-0.15374755859375,-0.03228759765625,1.00506591796875,3.39447021484375,-2.91595458984375,2.998199462890625,1,1.0,1.0,1.0,1.0,50.00
2022-11-23 20:10:52.261,0.9033018,0.37495956,0.24867588,0.92259806,0.7786497,0.31409383,0.28517625,0.40856737,0.5512668,0.37996605,0.42260286,0.5947761,0.04284592,-0.14345177,-0.040122673,0.23702928,-0.21368504,-0.5205638,-0.59956324,-0.15317671,868.71796,802.6374,802.6374,857.4359,933.5897,-0.15374755859375,-0.03228759765625,1.00506591796875,3.39447021484375,-2.91595458984375,2.998199462890625,1,1.0,1.0,1.0,1.0,50.00
2022-11-23 20:10:52.262,0.9033018,0.37495956,0.24867588,0.92259806,0.7786497,0.31409383,0.28517625,0.40856737,0.5512668,0.37996605,0.42260286,0.5947761,0.04284592,-0.14345177,-0.040122673,0.23702928,-0.21368504,-0.5205638,-0.59956324,-0.15317671,798.60803,805.4579,800.2198,815.5311,930.7692,-0.15374755859375,-0.03228759765625,1.00506591796875,3.39447021484375,-2.91595458984375,2.998199462890625,1,1.0,1.0,1.0,1.0,50.00
2022-11-23 20:10:52.262,0.9033018,0.37495956,0.24867588,0.92259806,0.7786497,0.31409383,0.28517625,0.40856737,0.5512668,0.37996605,0.42260286,0.5947761,0.04284592,-0.14345177,-0.040122673,0.23702928,-0.21368504,-0.5205638,-0.59956324,-0.15317671,771.6117,808.2784,801.4286,794.57874,727.28937,-0.15374755859375,-0.03228759765625,1.00506591796875,3.39447021484375,-2.91595458984375,2.998199462890625,1,1.0,1.0,1.0,1.0,50.00
2022-11-23 20:10:52.262,0.9033018,0.37495956,0.24867588,0.92259806,0.7786497,0.31409383,0.28517625,0.40856737,0.5512668,0.37996605,0.42260286,0.5947761,0.04284592,-0.14345177,-0.040122673,0.23702928,-0.21368504,-0.5205638,-0.59956324,-0.15317671,832.8571,807.47253,802.6374,826.0073,647.1062,-0.15374755859375,-0.03228759765625,1.00506591796875,3.39447021484375,-2.91595458984375,2.998199462890625,1,1.0,1.0,1.0,1.0,50.00
2022-11-23 20:10:52.262,0.9033018,0.37495956,0.24867588,0.92259806,0.7786497,0.31409383,0.28517625,0.40856737,0.5512668,0.37996605,0.42260286,0.5947761,0.04284592,-0.14345177,-0.040122673,0.23702928,-0.21368504,-0.5205638,-0.59956324,-0.15317671,871.53845,806.6667,802.6374,859.85345,790.9524,-0.15374755859375,-0.03228759765625,1.00506591796875,3.39447021484375,-2.91595458984375,2.998199462890625,1,1.0,1.0,1.0,1.0,50.00
2022-11-23 20:10:52.263,0.9033018,0.37495956,0.24867588,0.92259806,0.7786497,0.31409383,0.28517625,0.40856737,0.5512668,0.37996605,0.42260286,0.5947761,0.04284592,-0.14345177,-0.040122673,0.23702928,-0.21368504,-0.5205638,-0.59956324,-0.15317671,828.4249,807.0696,798.20514,829.6337,782.8938,-0.15374755859375,-0.03228759765625,1.00506591796875,3.39447021484375,-2.91595458984375,2.998199462890625,1,1.0,1.0,1.0,1.0,50.00
2022-11-23 20:10:52.312,0.9033018,0.37495956,0.24867588,0.92259806,0.7786497,0.31409383,0.28517625,0.40856737,0.5512668,0.37996605,0.42260286,0.5947761,0.04284592,-0.14345177,-0.040122673,0.23702928,-0.21368504,-0.5205638,-0.59956324,-0.15317671,769.59705,804.2491,798.20514,792.1612,610.4396,-0.16436767578125,-0.01812744140625,1.0052490234375,3.955230712890625,-0.934600830078125,8.3740234375,1,1.0,1.0,1.0,1.0,50.00
2022-11-23 20:10:52.313,0.9033018,0.37495956,0.24867588,0.92259806,0.7786497,0.31409383,0.28517625,0.40856737,0.5512668,0.37996605,0.42260286,0.5947761,0.04284592,-0.14345177,-0.040122673,0.23702928,-0.21368504,-0.5205638,-0.59956324,-0.15317671,788.93774,802.23444,801.02563,811.0989,639.0476,-0.16436767578125,-0.01812744140625,1.0052490234375,3.955230712890625,-0.934600830078125,8.3740234375,1,1.0,1.0,1.0,1.0,50.00
2022-11-23 20:10:52.314,0.9033018,0.37495956,0.24867588,0.92259806,0.7786497,0.31409383,0.28517625,0.40856737,0.5512668,0.37996605,0.42260286,0.5947761,0.04284592,-0.14345177,-0.040122673,0.23702928,-0.21368504,-0.5205638,-0.59956324,-0.15317671,854.61536,801.4286,808.2784,846.9597,873.1502,-0.16436767578125,-0.01812744140625,1.0052490234375,3.955230712890625,-0.934600830078125,8.3740234375,1,1.0,1.0,1.0,1.0,50.00
2022-11-23 20:10:52.315,0.9033018,0.37495956,0.24867588,0.92259806,0.7786497,0.31409383,0.28517625,0.40856737,0.5512668,0.37996605,0.42260286,0.5947761,0.04284592,-0.14345177,-0.040122673,0.23702928,-0.21368504,-0.5205638,-0.59956324,-0.15317671,832.0513,799.41394,812.3077,824.3956,922.3077,-0.16436767578125,-0.01812744140625,1.0052490234375,3.955230712890625,-0.934600830078125,8.3740234375,1,1.0,1.0,1.0,1.0,50.00
2022-11-23 20:10:52.315,0.9033018,0.37495956,0.24867588,0.92259806,0.7786497,0.31409383,0.28517625,0.40856737,0.5512668,0.37996605,0.42260286,0.5947761,0.04284592,-0.14345177,-0.040122673,0.23702928,-0.21368504,-0.5205638,-0.59956324,-0.15317671,759.12085,801.02563,813.5165,775.2381,721.2454,-0.16436767578125,-0.01812744140625,1.0052490234375,3.955230712890625,-0.934600830078125,8.3740234375,1,1.0,1.0,1.0,1.0,50.00
2022-11-23 20:10:52.316,0.9033018,0.37495956,0.24867588,0.92259806,0.7786497,0.31409383,0.28517625,0.40856737,0.5512668,0.37996605,0.42260286,0.5947761,0.04284592,-0.14345177,-0.040122673,0.23702928,-0.21368504,-0.5205638,-0.59956324,-0.15317671,772.8205,799.81683,815.12823,788.5348,680.54944,-0.16436767578125,-0.01812744140625,1.0052490234375,3.955230712890625,-0.934600830078125,8.3740234375,1,1.0,1.0,1.0,1.0,50.00
2022-11-23 20:10:52.317,0.9033018,0.37495956,0.24867588,0.92259806,0.7786497,0.31409383,0.28517625,0.40856737,0.5512668,0.37996605,0.42260286,0.5947761,0.04284592,-0.14345177,-0.040122673,0.23702928,-0.21368504,-0.5205638,-0.59956324,-0.15317671,848.5714,794.57874,810.293,838.0952,974.2857,-0.16436767578125,-0.01812744140625,1.0052490234375,3.955230712890625,-0.934600830078125,8.3740234375,1,1.0,1.0,1.0,1.0,50.00
2022-11-23 20:10:52.317,0.9033018,0.37495956,0.24867588,0.92259806,0.7786497,0.31409383,0.28517625,0.40856737,0.5512668,0.37996605,0.42260286,0.5947761,0.04284592,-0.14345177,-0.040122673,0.23702928,-0.21368504,-0.5205638,-0.59956324,-0.15317671,843.73627,794.17584,805.8608,833.2601,1201.5385,-0.16436767578125,-0.01812744140625,1.0052490234375,3.955230712890625,-0.934600830078125,8.3740234375,1,1.0,1.0,1.0,1.0,50.00
2022-11-23 20:10:52.318,0.9033018,0.37495956,0.24867588,0.92259806,0.7786497,0.31409383,0.28517625,0.40856737,0.5512668,0.37996605,0.42260286,0.5947761,0.04284592,-0.14345177,-0.040122673,0.23702928,-0.21368504,-0.5205638,-0.59956324,-0.15317671,761.9414,793.7729,807.8755,773.6264,892.8938,-0.16436767578125,-0.01812744140625,1.0052490234375,3.955230712890625,-0.934600830078125,8.3740234375,1,1.0,1.0,1.0,1.0,50.00
2022-11-23 20:10:52.318,0.9033018,0.37495956,0.24867588,0.92259806,0.7786497,0.31409383,0.28517625,0.40856737,0.5512668,0.37996605,0.42260286,0.5947761,0.04284592,-0.14345177,-0.040122673,0.23702928,-0.21368504,-0.5205638,-0.59956324,-0.15317671,748.24176,795.38464,804.2491,765.56775,745.0183,-0.16436767578125,-0.01812744140625,1.0052490234375,3.955230712890625,-0.934600830078125,8.3740234375,1,1.0,1.0,1.0,1.0,50.00
2022-11-23 20:10:52.319,0.9033018,0.37495956,0.24867588,0.92259806,0.7786497,0.31409383,0.28517625,0.40856737,0.5512668,0.37996605,0.42260286,0.5947761,0.04284592,-0.14345177,-0.040122673,0.23702928,-0.21368504,-0.5205638,-0.59956324,-0.15317671,821.1722,797.8022,800.2198,819.9634,959.7802,-0.16436767578125,-0.01812744140625,1.0052490234375,3.955230712890625,-0.934600830078125,8.3740234375,1,1.0,1.0,1.0,1.0,50.00
2022-11-23 20:10:52.319,0.9033018,0.37495956,0.24867588,0.92259806,0.7786497,0.31409383,0.28517625,0.40856737,0.5512668,0.37996605,0.42260286,0.5947761,0.04284592,-0.14345177,-0.040122673,0.23702928,-0.21368504,-0.5205638,-0.59956324,-0.15317671,846.9597,801.02563,799.011,832.4542,1066.9597,-0.16436767578125,-0.01812744140625,1.0052490234375,3.955230712890625,-0.934600830078125,8.3740234375,1,1.0,1.0,1.0,1.0,50.00
2022-11-23 20:10:52.369,0.9033018,0.37495956,0.24867588,0.92259806,0.7786497,0.31409383,0.28517625,0.40856737,0.5512668,0.37996605,0.42260286,0.5947761,0.04284592,-0.14345177,-0.040122673,0.23702928,-0.21368504,-0.5205638,-0.59956324,-0.15317671,776.4469,798.60803,796.5934,781.685,946.4835,-0.16436767578125,-0.01812744140625,1.0052490234375,3.955230712890625,-0.934600830078125,8.3740234375,1,1.0,1.0,1.0,1.0,50.00
2022-11-23 20:10:52.369,0.9033018,0.37495956,0.24867588,0.92259806,0.7786497,0.31409383,0.28517625,0.40856737,0.5512668,0.37996605,0.42260286,0.5947761,0.04284592,-0.14345177,-0.040122673,0.23702928,-0.21368504,-0.5205638,-0.59956324,-0.15317671,740.58606,793.7729,796.1905,761.53845,782.8938,-0.16436767578125,-0.01812744140625,1.0052490234375,3.955230712890625,-0.934600830078125,8.3740234375,1,1.0,1.0,1.0,1.0,50.00
2022-11-23 20:10:52.369,0.9033018,0.37495956,0.24867588,0.92259806,0.7786497,0.31409383,0.28517625,0.40856737,0.5512668,0.37996605,0.42260286,0.5947761,0.04284592,-0.14345177,-0.040122673,0.23702928,-0.21368504,-0.5205638,-0.59956324,-0.15317671,797.8022,791.75824,797.3993,811.9048,915.4579,-0.16436767578125,-0.01812744140625,1.0052490234375,3.955230712890625,-0.934600830078125,8.3740234375,1,1.0,1.0,1.0,1.0,50.00
2022-11-23 20:10:52.370,0.9033018,0.37495956,0.24867588,0.92259806,0.7786497,0.31409383,0.28517625,0.40856737,0.5512668,0.37996605,0.42260286,0.5947761,0.04284592,-0.14345177,-0.040122673,0.23702928,-0.21368504,-0.5205638,-0.59956324,-0.15317671,852.6007,795.38464,799.011,844.94507,1025.4579,-0.16436767578125,-0.01812744140625,1.0052490234375,3.955230712890625,-0.934600830078125,8.3740234375,1,1.0,1.0,1.0,1.0,50.00
2022-11-23 20:10:52.370,0.9033018,0.37495956,0.24867588,0.92259806,0.7786497,0.31409383,0.28517625,0.40856737,0.5512668,0.37996605,0.42260286,0.5947761,0.04284592,-0.14345177,-0.040122673,0.23702928,-0.21368504,-0.5205638,-0.59956324,-0.15317671,812.3077,799.41394,796.5934,803.44324,888.46155,-0.16436767578125,-0.01812744140625,1.0052490234375,3.955230712890625,-0.934600830078125,8.3740234375,1,1.0,1.0,1.0,1.0,50.00
2022-11-23 20:10:52.370,0.9033018,0.37495956,0.24867588,0.92259806,0.7786497,0.31409383,0.28517625,0.40856737,0.5512668,0.37996605,0.42260286,0.5947761,0.04284592,-0.14345177,-0.040122673,0.23702928,-0.21368504,-0.5205638,-0.59956324,-0.15317671,749.0476,798.60803,796.99634,767.98535,768.7912,-0.16436767578125,-0.01812744140625,1.0052490234375,3.955230712890625,-0.934600830078125,8.3740234375,1,1.0,1.0,1.0,1.0,50.00
2022-11-23 20:10:52.370,0.9033018,0.37495956,0.24867588,0.92259806,0.7786497,0.31409383,0.28517625,0.40856737,0.5512668,0.37996605,0.42260286,0.5947761,0.04284592,-0.14345177,-0.040122673,0.23702928,-0.21368504,-0.5205638,-0.59956324,-0.15317671,778.0586,801.02563,799.011,797.8022,1008.5348,-0.16436767578125,-0.01812744140625,1.0052490234375,3.955230712890625,-0.934600830078125,8.3740234375,1,1.0,1.0,1.0,1.0,50.00
2022-11-23 20:10:52.371,0.9033018,0.54248923,0.5334649,0.8848866,0.7786497,0.31798518,0.36003575,0.4290482,0.5512668,0.37996605,0.44634914,0.58949,0.04284592,-0.1339218,-0.04108226,0.20397092,-0.21368504,-0.52627605,-0.6031794,-0.16456828,850.58606,803.0403,798.60803,840.9158,1122.967,-0.16436767578125,-0.01812744140625,1.0052490234375,3.955230712890625,-0.934600830078125,8.3740234375,1,1.0,1.0,1.0,1.0,50.00
2022-11-23 20:10:52.372,0.9033018,0.54248923,0.5334649,0.8848866,0.7786497,0.31798518,0.36003575,0.4290482,0.5512668,0.37996605,0.44634914,0.58949,0.04284592,-0.1339218,-0.04108226,0.20397092,-0.21368504,-0.52627605,-0.6031794,-0.16456828,834.87177,805.4579,800.6227,830.0366,845.34796,-0.16436767578125,-0.01812744140625,1.0052490234375,3.955230712890625,-0.934600830078125,8.3740234375,1,1.0,1.0,1.0,1.0,50.00
2022-11-23 20:10:52.372,0.9033018,0.54248923,0.5334649,0.8848866,0.7786497,0.31798518,0.36003575,0.4290482,0.5512668,0.37996605,0.44634914,0.58949,0.04284592,-0.1339218,-0.04108226,0.20397092,-0.21368504,-0.52627605,-0.6031794,-0.16456828,759.92676,806.6667,800.2198,782.49084,597.5458,-0.16436767578125,-0.01812744140625,1.0052490234375,3.955230712890625,-0.934600830078125,8.3740234375,1,1.0,1.0,1.0,1.0,50.00
2022-11-23 20:10:52.373,0.9033018,0.54248923,0.5334649,0.8848866,0.7786497,0.31798518,0.36003575,0.4290482,0.5512668,0.37996605,0.44634914,0.58949,0.04284592,-0.1339218,-0.04108226,0.20397092,-0.21368504,-0.52627605,-0.6031794,-0.16456828,766.77655,801.8315,800.6227,790.14655,594.3223,-0.16436767578125,-0.01812744140625,1.0052490234375,3.955230712890625,-0.934600830078125,8.3740234375,1,1.0,1.0,1.0,1.0,50.00
2022-11-23 20:10:52.373,0.9033018,0.54248923,0.5334649,0.8848866,0.7786497,0.31798518,0.36003575,0.4290482,0.5512668,0.37996605,0.44634914,0.58949,0.04284592,-0.1339218,-0.04108226,0.20397092,-0.21368504,-0.52627605,-0.6031794,-0.16456828,838.9011,801.4286,796.99634,841.31866,753.0769,-0.16436767578125,-0.01812744140625,1.0052490234375,3.955230712890625,-0.934600830078125,8.3740234375,1,1.0,1.0,1.0,1.0,50.00
2022-11-23 20:10:52.442,0.9033018,0.54248923,0.5334649,0.8848866,0.7786497,0.31798518,0.36003575,0.4290482,0.5512668,0.37996605,0.44634914,0.58949,0.04284592,-0.1339218,-0.04108226,0.20397092,-0.21368504,-0.52627605,-0.6031794,-0.16456828,842.9304,804.2491,793.36993,832.4542,807.47253,-0.17620849609375,-0.01495361328125,1.003662109375,3.730926513671875,-0.142059326171875,9.989013671875,1,1.0,1.0,1.0,1.0,50.00
2022-11-23 20:10:52.442,0.9033018,0.54248923,0.5334649,0.8848866,0.7786497,0.31798518,0.36003575,0.4290482,0.5512668,0.37996605,0.44634914,0.58949,0.04284592,-0.1339218,-0.04108226,0.20397092,-0.21368504,-0.52627605,-0.6031794,-0.16456828,768.3883,806.6667,800.6227,782.0879,642.27106,-0.17620849609375,-0.01495361328125,1.003662109375,3.730926513671875,-0.142059326171875,9.989013671875,1,1.0,1.0,1.0,1.0,50.00
2022-11-23 20:10:52.443,0.9033018,0.54248923,0.5334649,0.8848866,0.7786497,0.31798518,0.36003575,0.4290482,0.5512668,0.37996605,0.44634914,0.58949,0.04284592,-0.1339218,-0.04108226,0.20397092,-0.21368504,-0.52627605,-0.6031794,-0.16456828,748.24176,809.0842,802.23444,778.0586,563.69965,-0.17620849609375,-0.01495361328125,1.003662109375,3.730926513671875,-0.142059326171875,9.989013671875,1,1.0,1.0,1.0,1.0,50.00
2022-11-23 20:10:52.443,0.9033018,0.54248923,0.5334649,0.8848866,0.7786497,0.31798518,0.36003575,0.4290482,0.5512668,0.37996605,0.44634914,0.58949,0.04284592,-0.1339218,-0.04108226,0.20397092,-0.21368504,-0.52627605,-0.6031794,-0.16456828,830.0366,812.71063,800.6227,829.2308,834.87177,-0.17620849609375,-0.01495361328125,1.003662109375,3.730926513671875,-0.142059326171875,9.989013671875,1,1.0,1.0,1.0,1.0,50.00
2022-11-23 20:10:52.443,0.9033018,0.54248923,0.5334649,0.8848866,0.7786497,0.31798518,0.36003575,0.4290482,0.5512668,0.37996605,0.44634914,0.58949,0.04284592,-0.1339218,-0.04108226,0.20397092,-0.21368504,-0.52627605,-0.6031794,-0.16456828,870.32965,812.3077,800.2198,847.76556,975.4945,-0.17620849609375,-0.01495361328125,1.003662109375,3.730926513671875,-0.142059326171875,9.989013671875,1,1.0,1.0,1.0,1.0,50.00
2022-11-23 20:10:52.444,0.9033018,0.54248923,0.5334649,0.8848866,0.7786497,0.31798518,0.36003575,0.4290482,0.5512668,0.37996605,0.44634914,0.58949,0.04284592,-0.1339218,-0.04108226,0.20397092,-0.21368504,-0.52627605,-0.6031794,-0.16456828,802.6374,808.68134,800.6227,805.8608,913.8461,-0.17620849609375,-0.01495361328125,1.003662109375,3.730926513671875,-0.142059326171875,9.989013671875,1,1.0,1.0,1.0,1.0,50.00
2022-11-23 20:10:52.444,0.9033018,0.54248923,0.5334649,0.8848866,0.7786497,0.31798518,0.36003575,0.4290482,0.5512668,0.37996605,0.44634914,0.58949,0.04284592,-0.1339218,-0.04108226,0.20397092,-0.21368504,-0.52627605,-0.6031794,-0.16456828,751.4652,809.0842,801.02563,784.10254,884.43225,-0.17620849609375,-0.01495361328125,1.003662109375,3.730926513671875,-0.142059326171875,9.989013671875,1,1.0,1.0,1.0,1.0,50.00
2022-11-23 20:10:52.444,0.9033018,0.54248923,0.5334649,0.8848866,0.7786497,0.31798518,0.36003575,0.4290482,0.5512668,0.37996605,0.44634914,0.58949,0.04284592,-0.1339218,-0.04108226,0.20397092,-0.21368504,-0.52627605,-0.6031794,-0.16456828,801.02563,806.6667,802.6374,821.978,873.1502,-0.17620849609375,-0.01495361328125,1.003662109375,3.730926513671875,-0.142059326171875,9.989013671875,1,1.0,1.0,1.0,1.0,50.00
2022-11-23 20:10:52.444,0.9033018,0.54248923,0.5334649,0.8848866,0.7786497,0.31798518,0.36003575,0.4290482,0.5512668,0.37996605,0.44634914,0.58949,0.04284592,-0.1339218,-0.04108226,0.20397092,-0.21368504,-0.52627605,-0.6031794,-0.16456828,865.89746,804.65204,801.4286,853.8095,840.9158,-0.17620849609375,-0.01495361328125,1.003662109375,3.730926513671875,-0.142059326171875,9.989013671875,1,1.0,1.0,1.0,1.0,50.00
2022-11-23 20:10:52.445,0.9033018,0.54248923,0.5334649,0.8848866,0.7786497,0.31798518,0.36003575,0.4290482,0.5512668,0.37996605,0.44634914,0.58949,0.04284592,-0.1339218,-0.04108226,0.20397092,-0.21368504,-0.52627605,-0.6031794,-0.16456828,826.0073,806.26373,797.3993,819.5604,852.6007,-0.17620849609375,-0.01495361328125,1.003662109375,3.730926513671875,-0.142059326171875,9.989013671875,1,1.0,1.0,1.0,1.0,50.00
2022-11-23 20:10:52.446,0.9033018,0.54248923,0.5334649,0.8848866,0.7786497,0.31798518,0.36003575,0.4290482,0.5512668,0.37996605,0.44634914,0.58949,0.04284592,-0.1339218,-0.04108226,0.20397092,-0.21368504,-0.52627605,-0.6031794,-0.16456828,757.50916,807.8755,796.5934,778.46155,817.1429,-0.17620849609375,-0.01495361328125,1.003662109375,3.730926513671875,-0.142059326171875,9.989013671875,1,1.0,1.0,1.0,1.0,50.00
2022-11-23 20:10:52.446,0.9033018,0.54248923,0.5334649,0.8848866,0.7786497,0.31798518,0.36003575,0.4290482,0.5512668,0.37996605,0.44634914,0.58949,0.04284592,-0.1339218,-0.04108226,0.20397092,-0.21368504,-0.52627605,-0.6031794,-0.16456828,792.1612,810.293,800.6227,804.2491,642.674,-0.17620849609375,-0.01495361328125,1.003662109375,3.730926513671875,-0.142059326171875,9.989013671875,1,1.0,1.0,1.0,1.0,50.00
2022-11-23 20:10:52.468,0.9033018,0.54248923,0.5334649,0.8848866,0.7786497,0.31798518,0.36003575,0.4290482,0.5512668,0.37996605,0.44634914,0.58949,0.04284592,-0.1339218,-0.04108226,0.20397092,-0.21368504,-0.52627605,-0.6031794,-0.16456828,867.1062,807.8755,800.2198,855.0183,753.0769,-0.18597412109375,-0.01300048828125,1.00347900390625,2.9608154296875,-1.7047119140625,6.62445068359375,1,1.0,1.0,1.0,1.0,50.00
2022-11-23 20:10:52.468,0.9033018,0.54248923,0.5334649,0.8848866,0.7786497,0.31798518,0.36003575,0.4290482,0.5512668,0.37996605,0.44634914,0.58949,0.04284592,-0.1339218,-0.04108226,0.20397092,-0.21368504,-0.52627605,-0.6031794,-0.16456828,849.7802,809.0842,796.5934,838.9011,859.45056,-0.18597412109375,-0.01300048828125,1.00347900390625,2.9608154296875,-1.7047119140625,6.62445068359375,1,1.0,1.0,1.0,1.0,50.00
2022-11-23 20:10:52.469,0.9033018,0.54248923,0.5334649,0.8848866,0.7786497,0.31798518,0.36003575,0.4290482,0.5512668,0.37996605,0.44634914,0.58949,0.04284592,-0.1339218,-0.04108226,0.20397092,-0.21368504,-0.52627605,-0.6031794,-0.16456828,779.2674,813.5165,799.41394,792.5641,663.6264,-0.18597412109375,-0.01300048828125,1.00347900390625,2.9608154296875,-1.7047119140625,6.62445068359375,1,1.0,1.0,1.0,1.0,50.00
2022-11-23 20:10:52.469,0.9033018,0.54248923,0.5334649,0.8848866,0.7786497,0.31798518,0.36003575,0.4290482,0.5512668,0.37996605,0.44634914,0.58949,0.04284592,-0.1339218,-0.04108226,0.20397092,-0.21368504,-0.52627605,-0.6031794,-0.16456828,779.2674,813.1135,803.44324,799.011,590.293,-0.18597412109375,-0.01300048828125,1.00347900390625,2.9608154296875,-1.7047119140625,6.62445068359375,1,1.0,1.0,1.0,1.0,50.00
2022-11-23 20:10:52.469,0.9033018,0.54248923,0.5334649,0.8848866,0.7786497,0.31798518,0.36003575,0.4290482,0.5512668,0.37996605,0.44634914,0.58949,0.04284592,-0.1339218,-0.04108226,0.20397092,-0.21368504,-0.52627605,-0.6031794,-0.16456828,853.00366,810.293,797.8022,842.1245,774.83514,-0.18597412109375,-0.01300048828125,1.00347900390625,2.9608154296875,-1.7047119140625,6.62445068359375,1,1.0,1.0,1.0,1.0,50.00
2022-11-23 20:10:52.470,0.9033018,0.54248923,0.5334649,0.8848866,0.7786497,0.31798518,0.36003575,0.4290482,0.5512668,0.37996605,0.44634914,0.58949,0.04284592,-0.1339218,-0.04108226,0.20397092,-0.21368504,-0.52627605,-0.6031794,-0.16456828,868.315,811.50183,791.3553,844.94507,919.89014,-0.18597412109375,-0.01300048828125,1.00347900390625,2.9608154296875,-1.7047119140625,6.62445068359375,1,1.0,1.0,1.0,1.0,50.00
2022-11-23 20:10:52.470,0.9033018,0.54248923,0.5334649,0.8848866,0.7786497,0.31798518,0.36003575,0.4290482,0.5512668,0.37996605,0.44634914,0.58949,0.04284592,-0.1339218,-0.04108226,0.20397092,-0.21368504,-0.52627605,-0.6031794,-0.16456828,791.75824,809.89014,791.75824,793.36993,834.4689,-0.18597412109375,-0.01300048828125,1.00347900390625,2.9608154296875,-1.7047119140625,6.62445068359375,1,1.0,1.0,1.0,1.0,50.00
2022-11-23 20:10:52.471,0.9033018,0.54248923,0.5334649,0.8848866,0.7786497,0.31798518,0.36003575,0.4290482,0.5512668,0.37996605,0.44634914,0.58949,0.04284592,-0.1339218,-0.04108226,0.20397092,-0.21368504,-0.52627605,-0.6031794,-0.16456828,763.5531,807.47253,793.7729,777.6557,673.2967,-0.18597412109375,-0.01300048828125,1.00347900390625,2.9608154296875,-1.7047119140625,6.62445068359375,1,1.0,1.0,1.0,1.0,50.00
2022-11-23 20:10:52.471,0.9033018,0.54248923,0.5334649,0.8848866,0.7786497,0.31798518,0.36003575,0.4290482,0.5512668,0.37996605,0.44634914,0.58949,0.04284592,-0.1339218,-0.04108226,0.20397092,-0.21368504,-0.52627605,-0.6031794,-0.16456828,828.022,813.5165,793.7729,827.2161,765.56775,-0.18597412109375,-0.01300048828125,1.00347900390625,2.9608154296875,-1.7047119140625,6.62445068359375,1,1.0,1.0,1.0,1.0,50.00
2022-11-23 20:10:52.471,0.9033018,0.7409998,0.80400264,0.81870866,0.7786497,0.3344828,0.45786303,0.4563017,0.5512668,0.37996605,0.47443035,0.58949,0.04284592,-0.12851794,-0.03444833,0.16382448,-0.21368504,-0.5215368,-0.5901976,-0.17831592,866.7033,816.7399,791.75824,842.1245,955.34796,-0.18597412109375,-0.01300048828125,1.00347900390625,2.9608154296875,-1.7047119140625,6.62445068359375,1,1.0,1.0,1.0,1.0,50.00
2022-11-23 20:10:52.472,0.9033018,0.7409998,0.80400264,0.81870866,0.7786497,0.3344828,0.45786303,0.4563017,0.5512668,0.37996605,0.47443035,0.58949,0.04284592,-0.12851794,-0.03444833,0.16382448,-0.21368504,-0.5215368,-0.5901976,-0.17831592,812.3077,816.337,798.60803,801.8315,794.17584,-0.18597412109375,-0.01300048828125,1.00347900390625,2.9608154296875,-1.7047119140625,6.62445068359375,1,1.0,1.0,1.0,1.0,50.00
2022-11-23 20:10:52.473,0.9033018,0.7409998,0.80400264,0.81870866,0.7786497,0.3344828,0.45786303,0.4563017,0.5512668,0.37996605,0.47443035,0.58949,0.04284592,-0.12851794,-0.03444833,0.16382448,-0.21368504,-0.5215368,-0.5901976,-0.17831592,761.13556,813.5165,803.44324,777.25275,593.1135,-0.18597412109375,-0.01300048828125,1.00347900390625,2.9608154296875,-1.7047119140625,6.62445068359375,1,1.0,1.0,1.0,1.0,50.00
2022-11-23 20:10:52.495,0.9033018,0.7409998,0.80400264,0.81870866,0.7786497,0.3344828,0.45786303,0.4563017,0.5512668,0.37996605,0.47443035,0.58949,0.04284592,-0.12851794,-0.03444833,0.16382448,-0.21368504,-0.5215368,-0.5901976,-0.17831592,796.5934,805.05493,799.41394,807.0696,698.2784,-0.18072509765625,-0.01104736328125,1.00384521484375,4.35150146484375,-2.594451904296875,2.31781005859375,1,1.0,1.0,1.0,1.0,50.00
2022-11-23 20:10:52.496,0.9033018,0.7409998,0.80400264,0.81870866,0.7786497,0.3344828,0.45786303,0.4563017,0.5512668,0.37996605,0.47443035,0.58949,0.04284592,-0.12851794,-0.03444833,0.16382448,-0.21368504,-0.5215368,-0.5901976,-0.17831592,857.4359,807.0696,801.8315,845.7509,1058.4982,-0.18072509765625,-0.01104736328125,1.00384521484375,4.35150146484375,-2.594451904296875,2.31781005859375,1,1.0,1.0,1.0,1.0,50.00
2022-11-23 20:10:52.496,0.9033018,0.7409998,0.80400264,0.81870866,0.7786497,0.3344828,0.45786303,0.4563017,0.5512668,0.37996605,0.47443035,0.58949,0.04284592,-0.12851794,-0.03444833,0.16382448,-0.21368504,-0.5215368,-0.5901976,-0.17831592,831.2454,808.68134,802.23444,809.0842,964.21246,-0.18072509765625,-0.01104736328125,1.00384521484375,4.35150146484375,-2.594451904296875,2.31781005859375,1,1.0,1.0,1.0,1.0,50.00
2022-11-23 20:10:52.496,0.9033018,0.7409998,0.80400264,0.81870866,0.7786497,0.3344828,0.45786303,0.4563017,0.5512668,0.37996605,0.47443035,0.58949,0.04284592,-0.12851794,-0.03444833,0.16382448,-0.21368504,-0.5215368,-0.5901976,-0.17831592,754.2857,806.6667,799.81683,754.2857,587.47253,-0.18072509765625,-0.01104736328125,1.00384521484375,4.35150146484375,-2.594451904296875,2.31781005859375,1,1.0,1.0,1.0,1.0,50.00
2022-11-23 20:10:52.497,0.9033018,0.7409998,0.80400264,0.81870866,0.7786497,0.3344828,0.45786303,0.4563017,0.5512668,0.37996605,0.47443035,0.58949,0.04284592,-0.12851794,-0.03444833,0.16382448,-0.21368504,-0.5215368,-0.5901976,-0.17831592,767.5824,807.47253,800.2198,773.6264,626.55676,-0.18072509765625,-0.01104736328125,1.00384521484375,4.35150146484375,-2.594451904296875,2.31781005859375,1,1.0,1.0,1.0,1.0,50.00
2022-11-23 20:10:52.497,0.9033018,0.7409998,0.80400264,0.81870866,0.7786497,0.3344828,0.45786303,0.4563017,0.5512668,0.37996605,0.47443035,0.58949,0.04284592,-0.12851794,-0.03444833,0.16382448,-0.21368504,-0.5215368,-0.5901976,-0.17831592,851.79486,805.4579,801.02563,824.7985,905.78754,-0.18072509765625,-0.01104736328125,1.00384521484375,4.35150146484375,-2.594451904296875,2.31781005859375,1,1.0,1.0,1.0,1.0,50.00
2022-11-23 20:10:52.497,0.9033018,0.7409998,0.80400264,0.81870866,0.7786497,0.3344828,0.45786303,0.4563017,0.5512668,0.37996605,0.47443035,0.58949,0.04284592,-0.12851794,-0.03444833,0.16382448,-0.21368504,-0.5215368,-0.5901976,-0.17831592,842.52747,809.4872,803.0403,821.1722,963.8095,-0.18072509765625,-0.01104736328125,1.00384521484375,4.35150146484375,-2.594451904296875,2.31781005859375,1,1.0,1.0,1.0,1.0,50.00
2022-11-23 20:10:52.498,0.9033018,0.7409998,0.80400264,0.81870866,0.7786497,0.3344828,0.45786303,0.4563017,0.5512668,0.37996605,0.47443035,0.58949,0.04284592,-0.12851794,-0.03444833,0.16382448,-0.21368504,-0.5215368,-0.5901976,-0.17831592,765.9707,811.9048,803.8461,773.6264,690.6227,-0.18072509765625,-0.01104736328125,1.00384521484375,4.35150146484375,-2.594451904296875,2.31781005859375,1,1.0,1.0,1.0,1.0,50.00
2022-11-23 20:10:52.498,0.9033018,0.7409998,0.80400264,0.81870866,0.7786497,0.3344828,0.45786303,0.4563017,0.5512668,0.37996605,0.47443035,0.58949,0.04284592,-0.12851794,-0.03444833,0.16382448,-0.21368504,-0.5215368,-0.5901976,-0.17831592,767.1795,806.6667,804.65204,780.87915,686.99634,-0.18072509765625,-0.01104736328125,1.00384521484375,4.35150146484375,-2.594451904296875,2.31781005859375,1,1.0,1.0,1.0,1.0,50.00
2022-11-23 20:10:52.498,0.9033018,0.7409998,0.80400264,0.81870866,0.7786497,0.3344828,0.45786303,0.4563017,0.5512668,0.37996605,0.47443035,0.58949,0.04284592,-0.12851794,-0.03444833,0.16382448,-0.21368504,-0.5215368,-0.5901976,-0.17831592,836.4835,803.8461,805.4579,833.663,979.5238,-0.18072509765625,-0.01104736328125,1.00384521484375,4.35150146484375,-2.594451904296875,2.31781005859375,1,1.0,1.0,1.0,1.0,50.00
2022-11-23 20:10:52.498,0.9033018,0.7409998,0.80400264,0.81870866,0.7786497,0.3344828,0.45786303,0.4563017,0.5512668,0.37996605,0.47443035,0.58949,0.04284592,-0.12851794,-0.03444833,0.16382448,-0.21368504,-0.5215368,-0.5901976,-0.17831592,850.58606,801.4286,803.44324,832.8571,904.57874,-0.18072509765625,-0.01104736328125,1.00384521484375,4.35150146484375,-2.594451904296875,2.31781005859375,1,1.0,1.0,1.0,1.0,50.00
2022-11-23 20:10:52.499,0.9033018,0.7409998,0.80400264,0.81870866,0.7786497,0.3344828,0.45786303,0.4563017,0.5512668,0.37996605,0.47443035,0.58949,0.04284592,-0.12851794,-0.03444833,0.16382448,-0.21368504,-0.5215368,-0.5901976,-0.17831592,779.67035,800.2198,801.4286,785.31134,726.4835,-0.18072509765625,-0.01104736328125,1.00384521484375,4.35150146484375,-2.594451904296875,2.31781005859375,1,1.0,1.0,1.0,1.0,50.00
2022-11-23 20:10:52.571,0.9033018,0.7409998,0.80400264,0.81870866,0.7786497,0.3344828,0.45786303,0.4563017,0.5512668,0.37996605,0.47443035,0.58949,0.04284592,-0.12851794,-0.03444833,0.16382448,-0.21368504,-0.5215368,-0.5901976,-0.17831592,748.6447,803.44324,804.65204,774.0293,738.1685,-0.15997314453125,-0.01043701171875,1.00189208984375,4.209442138671875,-1.622467041015625,-0.560760498046875,1,1.0,1.0,1.0,1.0,50.00
2022-11-23 20:10:52.571,0.9033018,0.7409998,0.80400264,0.81870866,0.7786497,0.3344828,0.45786303,0.4563017,0.5512668,0.37996605,0.47443035,0.58949,0.04284592,-0.12851794,-0.03444833,0.16382448,-0.21368504,-0.5215368,-0.5901976,-0.17831592,812.3077,806.26373,805.8608,822.7839,814.3223,-0.15997314453125,-0.01043701171875,1.00189208984375,4.209442138671875,-1.622467041015625,-0.560760498046875,1,1.0,1.0,1.0,1.0,50.00
2022-11-23 20:10:52.572,0.9033018,0.7409998,0.80400264,0.81870866,0.7786497,0.3344828,0.45786303,0.4563017,0.5512668,0.37996605,0.47443035,0.58949,0.04284592,-0.12851794,-0.03444833,0.16382448,-0.21368504,-0.5215368,-0.5901976,-0.17831592,865.89746,805.05493,808.68134,845.7509,842.9304,-0.15997314453125,-0.01043701171875,1.00189208984375,4.209442138671875,-1.622467041015625,-0.560760498046875,1,1.0,1.0,1.0,1.0,50.00
2022-11-23 20:10:52.572,0.9033018,0.7409998,0.80400264,0.81870866,0.7786497,0.3344828,0.45786303,0.4563017,0.5512668,0.37996605,0.47443035,0.58949,0.04284592,-0.12851794,-0.03444833,0.16382448,-0.21368504,-0.5215368,-0.5901976,-0.17831592,820.7692,804.65204,811.9048,809.89014,763.1502,-0.15997314453125,-0.01043701171875,1.00189208984375,4.209442138671875,-1.622467041015625,-0.560760498046875,1,1.0,1.0,1.0,1.0,50.00
2022-11-23 20:10:52.572,0.9033018,0.7409998,0.80400264,0.81870866,0.7786497,0.3344828,0.45786303,0.4563017,0.5512668,0.37996605,0.47443035,0.58949,0.04284592,-0.12851794,-0.03444833,0.16382448,-0.21368504,-0.5215368,-0.5901976,-0.17831592,754.2857,803.0403,811.0989,780.4762,673.2967,-0.15997314453125,-0.01043701171875,1.00189208984375,4.209442138671875,-1.622467041015625,-0.560760498046875,1,1.0,1.0,1.0,1.0,50.00
2022-11-23 20:10:52.573,0.9033018,0.7409998,0.80400264,0.81870866,0.7786497,0.3344828,0.45786303,0.4563017,0.5512668,0.37996605,0.47443035,0.58949,0.04284592,-0.12851794,-0.03444833,0.16382448,-0.21368504,-0.5215368,-0.5901976,-0.17831592,786.52014,804.2491,807.0696,807.8755,833.2601,-0.15997314453125,-0.01043701171875,1.00189208984375,4.209442138671875,-1.622467041015625,-0.560760498046875,1,1.0,1.0,1.0,1.0,50.00
2022-11-23 20:10:52.573,0.9033018,0.7409998,0.80400264,0.81870866,0.7786497,0.3344828,0.45786303,0.4563017,0.5512668,0.37996605,0.47443035,0.58949,0.04284592,-0.12851794,-0.03444833,0.16382448,-0.21368504,-0.5215368,-0.5901976,-0.17831592,864.68866,807.0696,807.47253,855.42126,1070.1831,-0.15997314453125,-0.01043701171875,1.00189208984375,4.209442138671875,-1.622467041015625,-0.560760498046875,1,1.0,1.0,1.0,1.0,50.00
2022-11-23 20:10:52.573,0.9033018,0.7409998,0.80400264,0.81870866,0.7786497,0.3344828,0.45786303,0.4563017,0.5512668,0.37996605,0.47443035,0.58949,0.04284592,-0.12851794,-0.03444833,0.16382448,-0.21368504,-0.5215368,-0.5901976,-0.17831592,844.5421,806.26373,808.68134,830.0366,954.1392,-0.15997314453125,-0.01043701171875,1.00189208984375,4.209442138671875,-1.622467041015625,-0.560760498046875,1,1.0,1.0,1.0,1.0,50.00
2022-11-23 20:10:52.573,0.9033018,0.7409998,0.80400264,0.81870866,0.7786497,0.3344828,0.45786303,0.4563017,0.5512668,0.37996605,0.47443035,0.58949,0.04284592,-0.12851794,-0.03444833,0.16382448,-0.21368504,-0.5215368,-0.5901976,-0.17831592,765.56775,805.4579,805.4579,780.87915,838.9011,-0.15997314453125,-0.01043701171875,1.00189208984375,4.209442138671875,-1.622467041015625,-0.560760498046875,1,1.0,1.0,1.0,1.0,50.00
2022-11-23 20:10:52.573,0.9033018,0.7409998,0.80400264,0.81870866,0.7786497,0.3344828,0.45786303,0.4563017,0.5512668,0.37996605,0.47443035,0.58949,0.04284592,-0.12851794,-0.03444833,0.16382448,-0.21368504,-0.5215368,-0.5901976,-0.17831592,778.0586,803.0403,805.8608,793.7729,765.9707,-0.15997314453125,-0.01043701171875,1.00189208984375,4.209442138671875,-1.622467041015625,-0.560760498046875,1,1.0,1.0,1.0,1.0,50.00
2022-11-23 20:10:52.574,0.9033018,0.7409998,0.80400264,0.81870866,0.7786497,0.3344828,0.45786303,0.4563017,0.5512668,0.37996605,0.47443035,0.58949,0.04284592,-0.12851794,-0.03444833,0.16382448,-0.21368504,-0.5215368,-0.5901976,-0.17831592,861.4652,800.2198,804.2491,846.1539,792.5641,-0.15997314453125,-0.01043701171875,1.00189208984375,4.209442138671875,-1.622467041015625,-0.560760498046875,1,1.0,1.0,1.0,1.0,50.00
2022-11-23 20:10:52.574,0.8753097,0.9070413,1.0041491,0.71824056,0.80695635,0.36588916,0.546038,0.48260507,0.54367983,0.34339994,0.48757687,0.5859449,0.031825032,-0.1289916,-0.028452294,0.11424236,-0.2052386,-0.5075765,-0.55874455,-0.1890627,865.4945,801.8315,806.6667,850.18317,865.89746,-0.15997314453125,-0.01043701171875,1.00189208984375,4.209442138671875,-1.622467041015625,-0.560760498046875,1,1.0,1.0,1.0,1.0,50.00
2022-11-23 20:10:52.599,0.8753097,0.9070413,1.0041491,0.71824056,0.80695635,0.36588916,0.546038,0.48260507,0.54367983,0.34339994,0.48757687,0.5859449,0.031825032,-0.1289916,-0.028452294,0.11424236,-0.2052386,-0.5075765,-0.55874455,-0.1890627,784.5055,802.6374,804.65204,788.1319,672.8938,-0.15997314453125,-0.01043701171875,1.00189208984375,4.209442138671875,-1.622467041015625,-0.560760498046875,1,1.0,1.0,1.0,1.0,50.00
2022-11-23 20:10:52.599,0.8753097,0.9070413,1.0041491,0.71824056,0.80695635,0.36588916,0.546038,0.48260507,0.54367983,0.34339994,0.48757687,0.5859449,0.031825032,-0.1289916,-0.028452294,0.11424236,-0.2052386,-0.5075765,-0.55874455,-0.1890627,772.4176,803.44324,801.02563,780.07324,578.20514,-0.15997314453125,-0.01043701171875,1.00189208984375,4.209442138671875,-1.622467041015625,-0.560760498046875,1,1.0,1.0,1.0,1.0,50.00
2022-11-23 20:10:52.600,0.8753097,0.9070413,1.0041491,0.71824056,0.80695635,0.36588916,0.546038,0.48260507,0.54367983,0.34339994,0.48757687,0.5859449,0.031825032,-0.1289916,-0.028452294,0.11424236,-0.2052386,-0.5075765,-0.55874455,-0.1890627,841.31866,803.8461,801.4286,838.9011,778.46155,-0.15997314453125,-0.01043701171875,1.00189208984375,4.209442138671875,-1.622467041015625,-0.560760498046875,1,1.0,1.0,1.0,1.0,50.00
2022-11-23 20:10:52.600,0.8753097,0.9070413,1.0041491,0.71824056,0.80695635,0.36588916,0.546038,0.48260507,0.54367983,0.34339994,0.48757687,0.5859449,0.031825032,-0.1289916,-0.028452294,0.11424236,-0.2052386,-0.5075765,-0.55874455,-0.1890627,865.09155,804.65204,803.8461,855.82416,928.3516,-0.15997314453125,-0.01043701171875,1.00189208984375,4.209442138671875,-1.622467041015625,-0.560760498046875,1,1.0,1.0,1.0,1.0,50.00
2022-11-23 20:10:52.600,0.8753097,0.9070413,1.0041491,0.71824056,0.80695635,0.36588916,0.546038,0.48260507,0.54367983,0.34339994,0.48757687,0.5859449,0.031825032,-0.1289916,-0.028452294,0.11424236,-0.2052386,-0.5075765,-0.55874455,-0.1890627,806.6667,813.1135,806.26373,807.0696,838.9011,-0.15997314453125,-0.01043701171875,1.00189208984375,4.209442138671875,-1.622467041015625,-0.560760498046875,1,1.0,1.0,1.0,1.0,50.00
2022-11-23 20:10:52.600,0.8753097,0.9070413,1.0041491,0.71824056,0.80695635,0.36588916,0.546038,0.48260507,0.54367983,0.34339994,0.48757687,0.5859449,0.031825032,-0.1289916,-0.028452294,0.11424236,-0.2052386,-0.5075765,-0.55874455,-0.1890627,769.19415,813.5165,801.8315,783.2967,657.5824,-0.15997314453125,-0.01043701171875,1.00189208984375,4.209442138671875,-1.622467041015625,-0.560760498046875,1,1.0,1.0,1.0,1.0,50.00
2022-11-23 20:10:52.601,0.8753097,0.9070413,1.0041491,0.71824056,0.80695635,0.36588916,0.546038,0.48260507,0.54367983,0.34339994,0.48757687,0.5859449,0.031825032,-0.1289916,-0.028452294,0.11424236,-0.2052386,-0.5075765,-0.55874455,-0.1890627,821.5751,806.26373,797.3993,826.0073,718.022,-0.15997314453125,-0.01043701171875,1.00189208984375,4.209442138671875,-1.622467041015625,-0.560760498046875,1,1.0,1.0,1.0,1.0,50.00
2022-11-23 20:10:52.601,0.8753097,0.9070413,1.0041491,0.71824056,0.80695635,0.36588916,0.546038,0.48260507,0.54367983,0.34339994,0.48757687,0.5859449,0.031825032,-0.1289916,-0.028452294,0.11424236,-0.2052386,-0.5075765,-0.55874455,-0.1890627,875.16486,807.0696,800.2198,858.24176,998.86444,-0.15997314453125,-0.01043701171875,1.00189208984375,4.209442138671875,-1.622467041015625,-0.560760498046875,1,1.0,1.0,1.0,1.0,50.00
2022-11-23 20:10:52.601,0.8753097,0.9070413,1.0041491,0.71824056,0.80695635,0.36588916,0.546038,0.48260507,0.54367983,0.34339994,0.48757687,0.5859449,0.031825032,-0.1289916,-0.028452294,0.11424236,-0.2052386,-0.5075765,-0.55874455,-0.1890627,829.2308,805.8608,801.8315,826.8132,1030.6959,-0.15997314453125,-0.01043701171875,1.00189208984375,4.209442138671875,-1.622467041015625,-0.560760498046875,1,1.0,1.0,1.0,1.0,50.00
2022-11-23 20:10:52.601,0.8753097,0.9070413,1.0041491,0.71824056,0.80695635,0.36588916,0.546038,0.48260507,0.54367983,0.34339994,0.48757687,0.5859449,0.031825032,-0.1289916,-0.028452294,0.11424236,-0.2052386,-0.5075765,-0.55874455,-0.1890627,767.5824,809.4872,800.2198,794.57874,684.9817,-0.15997314453125,-0.01043701171875,1.00189208984375,4.209442138671875,-1.622467041015625,-0.560760498046875,1,1.0,1.0,1.0,1.0,50.00
2022-11-23 20:10:52.601,0.8753097,0.9070413,1.0041491,0.71824056,0.80695635,0.36588916,0.546038,0.48260507,0.54367983,0.34339994,0.48757687,0.5859449,0.031825032,-0.1289916,-0.028452294,0.11424236,-0.2052386,-0.5075765,-0.55874455,-0.1890627,806.26373,810.293,799.81683,824.7985,636.2271,-0.15997314453125,-0.01043701171875,1.00189208984375,4.209442138671875,-1.622467041015625,-0.560760498046875,1,1.0,1.0,1.0,1.0,50.00
2022-11-23 20:10:52.602,0.8753097,0.9070413,1.0041491,0.71824056,0.80695635,0.36588916,0.546038,0.48260507,0.54367983,0.34339994,0.48757687,0.5859449,0.031825032,-0.1289916,-0.028452294,0.11424236,-0.2052386,-0.5075765,-0.55874455,-0.1890627,879.59705,806.26373,796.5934,862.674,920.696,-0.15997314453125,-0.01043701171875,1.00189208984375,4.209442138671875,-1.622467041015625,-0.560760498046875,1,1.0,1.0,1.0,1.0,50.00
2022-11-23 20:10:52.649,0.8753097,0.9070413,1.0041491,0.71824056,0.80695635,0.36588916,0.546038,0.48260507,0.54367983,0.34339994,0.48757687,0.5859449,0.031825032,-0.1289916,-0.028452294,0.11424236,-0.2052386,-0.5075765,-0.55874455,-0.1890627,866.30035,804.2491,793.36993,839.304,913.8461,-0.16461181640625,-0.00823974609375,1.00714111328125,4.104766845703125,-0.545806884765625,0.710296630859375,1,1.0,1.0,1.0,1.0,50.00
2022-11-23 20:10:52.650,0.8753097,0.9070413,1.0041491,0.71824056,0.80695635,0.36588916,0.546038,0.48260507,0.54367983,0.34339994,0.48757687,0.5859449,0.031825032,-0.1289916,-0.028452294,0.11424236,-0.2052386,-0.5075765,-0.55874455,-0.1890627,785.31134,806.6667,794.9817,796.1905,661.2088,-0.16461181640625,-0.00823974609375,1.00714111328125,4.104766845703125,-0.545806884765625,0.710296630859375,1,1.0,1.0,1.0,1.0,50.00
2022-11-23 20:10:52.650,0.8753097,0.9070413,1.0041491,0.71824056,0.80695635,0.36588916,0.546038,0.48260507,0.54367983,0.34339994,0.48757687,0.5859449,0.031825032,-0.1289916,-0.028452294,0.11424236,-0.2052386,-0.5075765,-0.55874455,-0.1890627,781.685,805.8608,795.78754,810.696,640.65936,-0.16461181640625,-0.00823974609375,1.00714111328125,4.104766845703125,-0.545806884765625,0.710296630859375,1,1.0,1.0,1.0,1.0,50.00
2022-11-23 20:10:52.650,0.8753097,0.9070413,1.0041491,0.71824056,0.80695635,0.36588916,0.546038,0.48260507,0.54367983,0.34339994,0.48757687,0.5859449,0.031825032,-0.1289916,-0.028452294,0.11424236,-0.2052386,-0.5075765,-0.55874455,-0.1890627,863.0769,804.65204,797.3993,861.4652,852.6007,-0.16461181640625,-0.00823974609375,1.00714111328125,4.104766845703125,-0.545806884765625,0.710296630859375,1,1.0,1.0,1.0,1.0,50.00
2022-11-23 20:10:52.650,0.8753097,0.9070413,1.0041491,0.71824056,0.80695635,0.36588916,0.546038,0.48260507,0.54367983,0.34339994,0.48757687,0.5859449,0.031825032,-0.1289916,-0.028452294,0.11424236,-0.2052386,-0.5075765,-0.55874455,-0.1890627,863.47986,806.6667,796.1905,857.8388,1014.9817,-0.16461181640625,-0.00823974609375,1.00714111328125,4.104766845703125,-0.545806884765625,0.710296630859375,1,1.0,1.0,1.0,1.0,50.00
2022-11-23 20:10:52.651,0.8753097,0.9070413,1.0041491,0.71824056,0.80695635,0.36588916,0.546038,0.48260507,0.54367983,0.34339994,0.48757687,0.5859449,0.031825032,-0.1289916,-0.028452294,0.11424236,-0.2052386,-0.5075765,-0.55874455,-0.1890627,794.17584,811.0989,797.8022,807.8755,904.17584,-0.16461181640625,-0.00823974609375,1.00714111328125,4.104766845703125,-0.545806884765625,0.710296630859375,1,1.0,1.0,1.0,1.0,50.00
2022-11-23 20:10:52.651,0.8753097,0.9070413,1.0041491,0.71824056,0.80695635,0.36588916,0.546038,0.48260507,0.54367983,0.34339994,0.48757687,0.5859449,0.031825032,-0.1289916,-0.028452294,0.11424236,-0.2052386,-0.5075765,-0.55874455,-0.1890627,774.43225,809.0842,803.8461,796.1905,772.8205,-0.16461181640625,-0.00823974609375,1.00714111328125,4.104766845703125,-0.545806884765625,0.710296630859375,1,1.0,1.0,1.0,1.0,50.00
2022-11-23 20:10:52.651,0.8753097,0.9070413,1.0041491,0.71824056,0.80695635,0.36588916,0.546038,0.48260507,0.54367983,0.34339994,0.48757687,0.5859449,0.031825032,-0.1289916,-0.028452294,0.11424236,-0.2052386,-0.5075765,-0.55874455,-0.1890627,835.6777,807.8755,802.6374,839.707,1085.4945,-0.16461181640625,-0.00823974609375,1.00714111328125,4.104766845703125,-0.545806884765625,0.710296630859375,1,1.0,1.0,1.0,1.0,50.00
2022-11-23 20:10:52.651,0.8753097,0.9070413,1.0041491,0.71824056,0.80695635,0.36588916,0.546038,0.48260507,0.54367983,0.34339994,0.48757687,0.5859449,0.031825032,-0.1289916,-0.028452294,0.11424236,-0.2052386,-0.5075765,-0.55874455,-0.1890627,865.89746,808.2784,801.8315,847.3626,1158.8279,-0.16461181640625,-0.00823974609375,1.00714111328125,4.104766845703125,-0.545806884765625,0.710296630859375,1,1.0,1.0,1.0,1.0,50.00
2022-11-23 20:10:52.652,0.8753097,0.9070413,1.0041491,0.71824056,0.80695635,0.36588916,0.546038,0.48260507,0.54367983,0.34339994,0.48757687,0.5859449,0.031825032,-0.1289916,-0.028452294,0.11424236,-0.2052386,-0.5075765,-0.55874455,-0.1890627,801.4286,805.05493,807.47253,800.2198,780.4762,-0.16461181640625,-0.00823974609375,1.00714111328125,4.104766845703125,-0.545806884765625,0.710296630859375,1,1.0,1.0,1.0,1.0,50.00
2022-11-23 20:10:52.652,0.8753097,0.9070413,1.0041491,0.71824056,0.80695635,0.36588916,0.546038,0.48260507,0.54367983,0.34339994,0.48757687,0.5859449,0.031825032,-0.1289916,-0.028452294,0.11424236,-0.2052386,-0.5075765,-0.55874455,-0.1890627,754.68866,801.4286,812.3077,778.0586,630.18317,-0.16461181640625,-0.00823974609375,1.00714111328125,4.104766845703125,-0.545806884765625,0.710296630859375,1,1.0,1.0,1.0,1.0,50.00
2022-11-23 20:10:52.652,0.8753097,0.9070413,1.0041491,0.71824056,0.80695635,0.36588916,0.546038,0.48260507,0.54367983,0.34339994,0.48757687,0.5859449,0.031825032,-0.1289916,-0.028452294,0.11424236,-0.2052386,-0.5075765,-0.55874455,-0.1890627,798.60803,799.011,810.696,807.0696,725.6777,-0.16461181640625,-0.00823974609375,1.00714111328125,4.104766845703125,-0.545806884765625,0.710296630859375,1,1.0,1.0,1.0,1.0,50.00
2022-11-23 20:10:52.696,0.8753097,0.9070413,1.0041491,0.71824056,0.80695635,0.36588916,0.546038,0.48260507,0.54367983,0.34339994,0.48757687,0.5859449,0.031825032,-0.1289916,-0.028452294,0.11424236,-0.2052386,-0.5075765,-0.55874455,-0.1890627,855.42126,800.2198,810.293,838.9011,875.56775,-0.171630859375,-0.00543212890625,1.00390625,3.476715087890625,-0.979461669921875,2.370147705078125,1,1.0,1.0,1.0,1.0,50.00
2022-11-23 20:10:52.697,0.81066203,0.9277685,1.0299779,0.5854384,0.80983675,0.33866832,0.5597089,0.48978665,0.52805984,0.26916844,0.47907698,0.56133586,0.03011962,-0.1304442,-0.04287082,0.058983926,-0.19277707,-0.50402737,-0.5439241,-0.19161026,814.3223,798.60803,807.8755,808.68134,792.1612,-0.171630859375,-0.00543212890625,1.00390625,3.476715087890625,-0.979461669921875,2.370147705078125,1,1.0,1.0,1.0,1.0,50.00
2022-11-23 20:10:52.698,0.81066203,0.9277685,1.0299779,0.5854384,0.80983675,0.33866832,0.5597089,0.48978665,0.52805984,0.26916844,0.47907698,0.56133586,0.03011962,-0.1304442,-0.04287082,0.058983926,-0.19277707,-0.50402737,-0.5439241,-0.19161026,739.3773,794.17584,810.293,753.47986,601.5751,-0.171630859375,-0.00543212890625,1.00390625,3.476715087890625,-0.979461669921875,2.370147705078125,1,1.0,1.0,1.0,1.0,50.00
2022-11-23 20:10:52.698,0.81066203,0.9277685,1.0299779,0.5854384,0.80983675,0.33866832,0.5597089,0.48978665,0.52805984,0.26916844,0.47907698,0.56133586,0.03011962,-0.1304442,-0.04287082,0.058983926,-0.19277707,-0.50402737,-0.5439241,-0.19161026,761.13556,796.99634,817.9487,778.0586,644.68866,-0.171630859375,-0.00543212890625,1.00390625,3.476715087890625,-0.979461669921875,2.370147705078125,1,1.0,1.0,1.0,1.0,50.00
2022-11-23 20:10:52.698,0.81066203,0.9277685,1.0299779,0.5854384,0.80983675,0.33866832,0.5597089,0.48978665,0.52805984,0.26916844,0.47907698,0.56133586,0.03011962,-0.1304442,-0.04287082,0.058983926,-0.19277707,-0.50402737,-0.5439241,-0.19161026,836.08057,794.9817,818.3516,836.8865,838.49817,-0.171630859375,-0.00543212890625,1.00390625,3.476715087890625,-0.979461669921875,2.370147705078125,1,1.0,1.0,1.0,1.0,50.00
2022-11-23 20:10:52.698,0.81066203,0.9277685,1.0299779,0.5854384,0.80983675,0.33866832,0.5597089,0.48978665,0.52805984,0.26916844,0.47907698,0.56133586,0.03011962,-0.1304442,-0.04287082,0.058983926,-0.19277707,-0.50402737,-0.5439241,-0.19161026,824.7985,797.3993,812.3077,812.71063,876.3736,-0.171630859375,-0.00543212890625,1.00390625,3.476715087890625,-0.979461669921875,2.370147705078125,1,1.0,1.0,1.0,1.0,50.00
2022-11-23 20:10:52.699,0.81066203,0.9277685,1.0299779,0.5854384,0.80983675,0.33866832,0.5597089,0.48978665,0.52805984,0.26916844,0.47907698,0.56133586,0.03011962,-0.1304442,-0.04287082,0.058983926,-0.19277707,-0.50402737,-0.5439241,-0.19161026,751.06226,801.4286,809.4872,760.32965,808.68134,-0.171630859375,-0.00543212890625,1.00390625,3.476715087890625,-0.979461669921875,2.370147705078125,1,1.0,1.0,1.0,1.0,50.00
2022-11-23 20:10:52.699,0.81066203,0.9277685,1.0299779,0.5854384,0.80983675,0.33866832,0.5597089,0.48978665,0.52805984,0.26916844,0.47907698,0.56133586,0.03011962,-0.1304442,-0.04287082,0.058983926,-0.19277707,-0.50402737,-0.5439241,-0.19161026,753.8828,799.81683,808.2784,778.46155,880.40295,-0.171630859375,-0.00543212890625,1.00390625,3.476715087890625,-0.979461669921875,2.370147705078125,1,1.0,1.0,1.0,1.0,50.00
2022-11-23 20:10:52.699,0.81066203,0.9277685,1.0299779,0.5854384,0.80983675,0.33866832,0.5597089,0.48978665,0.52805984,0.26916844,0.47907698,0.56133586,0.03011962,-0.1304442,-0.04287082,0.058983926,-0.19277707,-0.50402737,-0.5439241,-0.19161026,822.7839,799.011,809.89014,828.4249,924.7253,-0.171630859375,-0.00543212890625,1.00390625,3.476715087890625,-0.979461669921875,2.370147705078125,1,1.0,1.0,1.0,1.0,50.00
2022-11-23 20:10:52.699,0.81066203,0.9277685,1.0299779,0.5854384,0.80983675,0.33866832,0.5597089,0.48978665,0.52805984,0.26916844,0.47907698,0.56133586,0.03011962,-0.1304442,-0.04287082,0.058983926,-0.19277707,-0.50402737,-0.5439241,-0.19161026,834.4689,797.8022,813.5165,833.2601,890.87915,-0.171630859375,-0.00543212890625,1.00390625,3.476715087890625,-0.979461669921875,2.370147705078125,1,1.0,1.0,1.0,1.0,50.00
2022-11-23 20:10:52.699,0.81066203,0.9277685,1.0299779,0.5854384,0.80983675,0.33866832,0.5597089,0.48978665,0.52805984,0.26916844,0.47907698,0.56133586,0.03011962,-0.1304442,-0.04287082,0.058983926,-0.19277707,-0.50402737,-0.5439241,-0.19161026,767.5824,801.02563,814.7253,785.31134,836.4835,-0.171630859375,-0.00543212890625,1.00390625,3.476715087890625,-0.979461669921875,2.370147705078125,1,1.0,1.0,1.0,1.0,50.00
2022-11-23 20:10:52.699,0.81066203,0.9277685,1.0299779,0.5854384,0.80983675,0.33866832,0.5597089,0.48978665,0.52805984,0.26916844,0.47907698,0.56133586,0.03011962,-0.1304442,-0.04287082,0.058983926,-0.19277707,-0.50402737,-0.5439241,-0.19161026,749.85345,803.44324,811.9048,775.2381,849.7802,-0.171630859375,-0.00543212890625,1.00390625,3.476715087890625,-0.979461669921875,2.370147705078125,1,1.0,1.0,1.0,1.0,50.00
2022-11-23 20:10:52.745,0.81066203,0.9277685,1.0299779,0.5854384,0.80983675,0.33866832,0.5597089,0.48978665,0.52805984,0.26916844,0.47907698,0.56133586,0.03011962,-0.1304442,-0.04287082,0.058983926,-0.19277707,-0.50402737,-0.5439241,-0.19161026,815.12823,800.6227,811.50183,830.4396,895.7143,-0.1629638671875,-2.44140625E-4,1.00384521484375,3.7982177734375,-0.31402587890625,2.325286865234375,1,1.0,1.0,1.0,1.0,50.00
2022-11-23 20:10:52.746,0.81066203,0.9277685,1.0299779,0.5854384,0.80983675,0.33866832,0.5597089,0.48978665,0.52805984,0.26916844,0.47907698,0.56133586,0.03011962,-0.1304442,-0.04287082,0.058983926,-0.19277707,-0.50402737,-0.5439241,-0.19161026,859.0476,801.02563,810.696,853.00366,959.3773,-0.1629638671875,-2.44140625E-4,1.00384521484375,3.7982177734375,-0.31402587890625,2.325286865234375,1,1.0,1.0,1.0,1.0,50.00
2022-11-23 20:10:52.746,0.81066203,0.9277685,1.0299779,0.5854384,0.80983675,0.33866832,0.5597089,0.48978665,0.52805984,0.26916844,0.47907698,0.56133586,0.03011962,-0.1304442,-0.04287082,0.058983926,-0.19277707,-0.50402737,-0.5439241,-0.19161026,809.0842,805.4579,807.8755,813.1135,817.1429,-0.1629638671875,-2.44140625E-4,1.00384521484375,3.7982177734375,-0.31402587890625,2.325286865234375,1,1.0,1.0,1.0,1.0,50.00
2022-11-23 20:10:52.746,0.81066203,0.9277685,1.0299779,0.5854384,0.80983675,0.33866832,0.5597089,0.48978665,0.52805984,0.26916844,0.47907698,0.56133586,0.03011962,-0.1304442,-0.04287082,0.058983926,-0.19277707,-0.50402737,-0.5439241,-0.19161026,759.12085,803.8461,808.68134,785.31134,628.1685,-0.1629638671875,-2.44140625E-4,1.00384521484375,3.7982177734375,-0.31402587890625,2.325286865234375,1,1.0,1.0,1.0,1.0,50.00
2022-11-23 20:10:52.746,0.81066203,0.9277685,1.0299779,0.5854384,0.80983675,0.33866832,0.5597089,0.48978665,0.52805984,0.26916844,0.47907698,0.56133586,0.03011962,-0.1304442,-0.04287082,0.058983926,-0.19277707,-0.50402737,-0.5439241,-0.19161026,805.05493,805.05493,807.47253,813.5165,653.95605,-0.1629638671875,-2.44140625E-4,1.00384521484375,3.7982177734375,-0.31402587890625,2.325286865234375,1,1.0,1.0,1.0,1.0,50.00
2022-11-23 20:10:52.747,0.81066203,0.9277685,1.0299779,0.5854384,0.80983675,0.33866832,0.5597089,0.48978665,0.52805984,0.26916844,0.47907698,0.56133586,0.03011962,-0.1304442,-0.04287082,0.058983926,-0.19277707,-0.50402737,-0.5439241,-0.19161026,867.50916,810.696,808.68134,847.3626,898.5348,-0.1629638671875,-2.44140625E-4,1.00384521484375,3.7982177734375,-0.31402587890625,2.325286865234375,1,1.0,1.0,1.0,1.0,50.00
2022-11-23 20:10:52.747,0.81066203,0.9277685,1.0299779,0.5854384,0.80983675,0.33866832,0.5597089,0.48978665,0.52805984,0.26916844,0.47907698,0.56133586,0.03011962,-0.1304442,-0.04287082,0.058983926,-0.19277707,-0.50402737,-0.5439241,-0.19161026,838.9011,807.47253,805.8608,819.5604,1105.238,-0.1629638671875,-2.44140625E-4,1.00384521484375,3.7982177734375,-0.31402587890625,2.325286865234375,1,1.0,1.0,1.0,1.0,50.00
2022-11-23 20:10:52.747,0.81066203,0.9277685,1.0299779,0.5854384,0.80983675,0.33866832,0.5597089,0.48978665,0.52805984,0.26916844,0.47907698,0.56133586,0.03011962,-0.1304442,-0.04287082,0.058983926,-0.19277707,-0.50402737,-0.5439241,-0.19161026,768.3883,804.65204,807.8755,775.64105,826.4103,-0.1629638671875,-2.44140625E-4,1.00384521484375,3.7982177734375,-0.31402587890625,2.325286865234375,1,1.0,1.0,1.0,1.0,50.00
2022-11-23 20:10:52.747,0.81066203,0.9277685,1.0299779,0.5854384,0.80983675,0.33866832,0.5597089,0.48978665,0.52805984,0.26916844,0.47907698,0.56133586,0.03011962,-0.1304442,-0.04287082,0.058983926,-0.19277707,-0.50402737,-0.5439241,-0.19161026,779.2674,804.2491,809.4872,792.96704,639.0476,-0.1629638671875,-2.44140625E-4,1.00384521484375,3.7982177734375,-0.31402587890625,2.325286865234375,1,1.0,1.0,1.0,1.0,50.00
2022-11-23 20:10:52.748,0.81066203,0.9277685,1.0299779,0.5854384,0.80983675,0.33866832,0.5597089,0.48978665,0.52805984,0.26916844,0.47907698,0.56133586,0.03011962,-0.1304442,-0.04287082,0.058983926,-0.19277707,-0.50402737,-0.5439241,-0.19161026,857.8388,801.8315,807.8755,846.55676,833.2601,-0.1629638671875,-2.44140625E-4,1.00384521484375,3.7982177734375,-0.31402587890625,2.325286865234375,1,1.0,1.0,1.0,1.0,50.00
