TimeStamp,Delta_TP9,Delta_AF7,Delta_AF8,Delta_TP10,Theta_TP9,Theta_AF7,Theta_AF8,Theta_TP10,Alpha_TP9,Alpha_AF7,Alpha_AF8,Alpha_TP10,Beta_TP9,Beta_AF7,Beta_AF8,Beta_TP10,Gamma_TP9,Gamma_AF7,Gamma_AF8,Gamma_TP10,RAW_TP9,RAW_AF7,RAW_AF8,RAW_TP10,AUX_RIGHT,Accelerometer_X,Accelerometer_Y,Accelerometer_Z,Gyro_X,Gyro_Y,Gyro_Z,HeadBandOn,HSI_TP9,HSI_AF7,HSI_AF8,HSI_TP10,Battery,Elements
2022-11-23 20:15:43.145,0.79042834,-0.073233545,-0.023856586,0.8431355,0.5093991,-0.1132558,-0.3782615,0.49381894,0.740019,0.08201969,0.03219581,0.6807967,0.17554173,-0.16619885,-0.021950925,0.30863878,-0.02021722,-0.6058501,-0.71577704,-0.03435449,758.315,795.78754,799.41394,776.8498,702.3077,-0.179443359375,-0.01495361328125,1.00616455078125,3.24493408203125,-1.607513427734375,0.79254150390625,1,1.0,1.0,1.0,1.0,55.00
2022-11-23 20:15:43.146,0.79042834,-0.073233545,-0.023856586,0.8431355,0.5093991,-0.1132558,-0.3782615,0.49381894,0.740019,0.08201969,0.03219581,0.6807967,0.17554173,-0.16619885,-0.021950925,0.30863878,-0.02021722,-0.6058501,-0.71577704,-0.03435449,742.6007,796.1905,800.2198,767.98535,707.1429,-0.179443359375,-0.01495361328125,1.00616455078125,3.24493408203125,-1.607513427734375,0.79254150390625,1,1.0,1.0,1.0,1.0,55.00
2022-11-23 20:15:43.146,0.79042834,-0.073233545,-0.023856586,0.8431355,0.5093991,-0.1132558,-0.3782615,0.49381894,0.740019,0.08201969,0.03219581,0.6807967,0.17554173,-0.16619885,-0.021950925,0.30863878,-0.02021722,-0.6058501,-0.71577704,-0.03435449,790.54944,798.60803,803.0403,804.65204,1012.1612,-0.179443359375,-0.01495361328125,1.00616455078125,3.24493408203125,-1.607513427734375,0.79254150390625,1,1.0,1.0,1.0,1.0,55.00
2022-11-23 20:15:43.147,0.79042834,-0.073233545,-0.023856586,0.8431355,0.5093991,-0.1132558,-0.3782615,0.49381894,0.740019,0.08201969,0.03219581,0.6807967,0.17554173,-0.16619885,-0.021950925,0.30863878,-0.02021722,-0.6058501,-0.71577704,-0.03435449,814.7253,794.9817,802.23444,819.5604,1021.8315,-0.179443359375,-0.01495361328125,1.00616455078125,3.24493408203125,-1.607513427734375,0.79254150390625,1,1.0,1.0,1.0,1.0,55.00
2022-11-23 20:15:43.147,0.79042834,-0.073233545,-0.023856586,0.8431355,0.5093991,-0.1132558,-0.3782615,0.49381894,0.740019,0.08201969,0.03219581,0.6807967,0.17554173,-0.16619885,-0.021950925,0.30863878,-0.02021722,-0.6058501,-0.71577704,-0.03435449,770.0,794.9817,801.4286,776.4469,690.2198,-0.179443359375,-0.01495361328125,1.00616455078125,3.24493408203125,-1.607513427734375,0.79254150390625,1,1.0,1.0,1.0,1.0,55.00
2022-11-23 20:15:43.147,0.79042834,-0.073233545,-0.023856586,0.8431355,0.5093991,-0.1132558,-0.3782615,0.49381894,0.740019,0.08201969,0.03219581,0.6807967,0.17554173,-0.16619885,-0.021950925,0.30863878,-0.02021722,-0.6058501,-0.71577704,-0.03435449,745.82416,799.81683,804.65204,765.56775,594.3223,-0.179443359375,-0.01495361328125,1.00616455078125,3.24493408203125,-1.607513427734375,0.79254150390625,1,1.0,1.0,1.0,1.0,55.00
2022-11-23 20:15:43.147,0.79042834,-0.073233545,-0.023856586,0.8431355,0.5093991,-0.1132558,-0.3782615,0.49381894,0.740019,0.08201969,0.03219581,0.6807967,0.17554173,-0.16619885,-0.021950925,0.30863878,-0.02021722,-0.6058501,-0.71577704,-0.03435449,784.5055,799.81683,803.0403,792.5641,925.12823,-0.179443359375,-0.01495361328125,1.00616455078125,3.24493408203125,-1.607513427734375,0.79254150390625,1,1.0,1.0,1.0,1.0,55.00
2022-11-23 20:15:43.148,0.79042834,-0.073233545,-0.023856586,0.8431355,0.5093991,-0.1132558,-0.3782615,0.49381894,0.740019,0.08201969,0.03219581,0.6807967,0.17554173,-0.16619885,-0.021950925,0.30863878,-0.02021722,-0.6058501,-0.71577704,-0.03435449,815.5311,801.8315,803.44324,808.68134,1123.773,-0.179443359375,-0.01495361328125,1.00616455078125,3.24493408203125,-1.607513427734375,0.79254150390625,1,1.0,1.0,1.0,1.0,55.00
2022-11-23 20:15:43.148,0.79042834,-0.073233545,-0.023856586,0.8431355,0.5093991,-0.1132558,-0.3782615,0.49381894,0.740019,0.08201969,0.03219581,0.6807967,0.17554173,-0.16619885,-0.021950925,0.30863878,-0.02021722,-0.6058501,-0.71577704,-0.03435449,784.10254,802.6374,805.05493,783.2967,771.2088,-0.179443359375,-0.01495361328125,1.00616455078125,3.24493408203125,-1.607513427734375,0.79254150390625,1,1.0,1.0,1.0,1.0,55.00
2022-11-23 20:15:43.148,0.8074742,-0.029855475,-0.014760453,0.8814492,0.5856273,-0.08205741,-0.33047915,0.5499869,0.7978748,0.07934484,0.03219581,0.73249507,0.19429511,-0.16892686,-0.011427511,0.32631585,-0.037563212,-0.58442,-0.6748641,-0.020428427,747.4359,802.6374,804.2491,765.56775,543.95605,-0.179443359375,-0.01495361328125,1.00616455078125,3.24493408203125,-1.607513427734375,0.79254150390625,1,1.0,1.0,1.0,1.0,55.00
2022-11-23 20:15:43.149,0.8074742,-0.029855475,-0.014760453,0.8814492,0.5856273,-0.08205741,-0.33047915,0.5499869,0.7978748,0.07934484,0.03219581,0.73249507,0.19429511,-0.16892686,-0.011427511,0.32631585,-0.037563212,-0.58442,-0.6748641,-0.020428427,786.1172,803.8461,807.0696,792.1612,648.315,-0.179443359375,-0.01495361328125,1.00616455078125,3.24493408203125,-1.607513427734375,0.79254150390625,1,1.0,1.0,1.0,1.0,55.00
2022-11-23 20:15:43.149,0.8074742,-0.029855475,-0.014760453,0.8814492,0.5856273,-0.08205741,-0.33047915,0.5499869,0.7978748,0.07934484,0.03219581,0.73249507,0.19429511,-0.16892686,-0.011427511,0.32631585,-0.037563212,-0.58442,-0.6748641,-0.020428427,831.6484,803.8461,807.47253,817.5458,818.7546,-0.179443359375,-0.01495361328125,1.00616455078125,3.24493408203125,-1.607513427734375,0.79254150390625,1,1.0,1.0,1.0,1.0,55.00
2022-11-23 20:15:43.216,0.8074742,-0.029855475,-0.014760453,0.8814492,0.5856273,-0.08205741,-0.33047915,0.5499869,0.7978748,0.07934484,0.03219581,0.73249507,0.19429511,-0.16892686,-0.011427511,0.32631585,-0.037563212,-0.58442,-0.6748641,-0.020428427,801.8315,805.4579,801.8315,798.60803,796.99634,-0.179443359375,-0.01495361328125,1.00616455078125,3.24493408203125,-1.607513427734375,0.79254150390625,1,1.0,1.0,1.0,1.0,55.00
2022-11-23 20:15:43.217,0.8074742,-0.029855475,-0.014760453,0.8814492,0.5856273,-0.08205741,-0.33047915,0.5499869,0.7978748,0.07934484,0.03219581,0.73249507,0.19429511,-0.16892686,-0.011427511,0.32631585,-0.037563212,-0.58442,-0.6748641,-0.020428427,767.1795,803.44324,801.02563,768.3883,616.8865,-0.179443359375,-0.01495361328125,1.00616455078125,3.24493408203125,-1.607513427734375,0.79254150390625,1,1.0,1.0,1.0,1.0,55.00
2022-11-23 20:15:43.217,0.8074742,-0.029855475,-0.014760453,0.8814492,0.5856273,-0.08205741,-0.33047915,0.5499869,0.7978748,0.07934484,0.03219581,0.73249507,0.19429511,-0.16892686,-0.011427511,0.32631585,-0.037563212,-0.58442,-0.6748641,-0.020428427,793.7729,807.0696,809.89014,788.5348,631.39197,-0.179443359375,-0.01495361328125,1.00616455078125,3.24493408203125,-1.607513427734375,0.79254150390625,1,1.0,1.0,1.0,1.0,55.00
2022-11-23 20:15:43.218,0.8074742,-0.029855475,-0.014760453,0.8814492,0.5856273,-0.08205741,-0.33047915,0.5499869,0.7978748,0.07934484,0.03219581,0.73249507,0.19429511,-0.16892686,-0.011427511,0.32631585,-0.037563212,-0.58442,-0.6748641,-0.020428427,840.10986,808.68134,809.89014,823.1868,878.7912,-0.179443359375,-0.01495361328125,1.00616455078125,3.24493408203125,-1.607513427734375,0.79254150390625,1,1.0,1.0,1.0,1.0,55.00
2022-11-23 20:15:43.218,0.8074742,-0.029855475,-0.014760453,0.8814492,0.5856273,-0.08205741,-0.33047915,0.5499869,0.7978748,0.07934484,0.03219581,0.73249507,0.19429511,-0.16892686,-0.011427511,0.32631585,-0.037563212,-0.58442,-0.6748641,-0.020428427,832.0513,803.44324,801.4286,816.337,909.011,-0.179443359375,-0.01495361328125,1.00616455078125,3.24493408203125,-1.607513427734375,0.79254150390625,1,1.0,1.0,1.0,1.0,55.00
2022-11-23 20:15:43.218,0.8074742,-0.029855475,-0.014760453,0.8814492,0.5856273,-0.08205741,-0.33047915,0.5499869,0.7978748,0.07934484,0.03219581,0.73249507,0.19429511,-0.16892686,-0.011427511,0.32631585,-0.037563212,-0.58442,-0.6748641,-0.020428427,787.72894,808.2784,801.4286,789.34064,738.1685,-0.179443359375,-0.01495361328125,1.00616455078125,3.24493408203125,-1.607513427734375,0.79254150390625,1,1.0,1.0,1.0,1.0,55.00
2022-11-23 20:15:43.219,0.8074742,-0.029855475,-0.014760453,0.8814492,0.5856273,-0.08205741,-0.33047915,0.5499869,0.7978748,0.07934484,0.03219581,0.73249507,0.19429511,-0.16892686,-0.011427511,0.32631585,-0.037563212,-0.58442,-0.6748641,-0.020428427,778.0586,809.0842,804.65204,791.3553,904.17584,-0.179443359375,-0.01495361328125,1.00616455078125,3.24493408203125,-1.607513427734375,0.79254150390625,1,1.0,1.0,1.0,1.0,55.00
2022-11-23 20:15:43.219,0.8074742,-0.029855475,-0.014760453,0.8814492,0.5856273,-0.08205741,-0.33047915,0.5499869,0.7978748,0.07934484,0.03219581,0.73249507,0.19429511,-0.16892686,-0.011427511,0.32631585,-0.037563212,-0.58442,-0.6748641,-0.020428427,821.5751,805.05493,807.47253,826.4103,990.0,-0.179443359375,-0.01495361328125,1.00616455078125,3.24493408203125,-1.607513427734375,0.79254150390625,1,1.0,1.0,1.0,1.0,55.00
2022-11-23 20:15:43.219,0.8074742,-0.029855475,-0.014760453,0.8814492,0.5856273,-0.08205741,-0.33047915,0.5499869,0.7978748,0.07934484,0.03219581,0.73249507,0.19429511,-0.16892686,-0.011427511,0.32631585,-0.037563212,-0.58442,-0.6748641,-0.020428427,849.3773,809.89014,813.1135,841.31866,1005.31134,-0.179443359375,-0.01495361328125,1.00616455078125,3.24493408203125,-1.607513427734375,0.79254150390625,1,1.0,1.0,1.0,1.0,55.00
2022-11-23 20:15:43.220,0.8074742,-0.029855475,-0.014760453,0.8814492,0.5856273,-0.08205741,-0.33047915,0.5499869,0.7978748,0.07934484,0.03219581,0.73249507,0.19429511,-0.16892686,-0.011427511,0.32631585,-0.037563212,-0.58442,-0.6748641,-0.020428427,809.0842,812.71063,815.12823,809.4872,969.45056,-0.179443359375,-0.01495361328125,1.00616455078125,3.24493408203125,-1.607513427734375,0.79254150390625,1,1.0,1.0,1.0,1.0,55.00
2022-11-23 20:15:43.220,0.8074742,-0.029855475,-0.014760453,0.8814492,0.5856273,-0.08205741,-0.33047915,0.5499869,0.7978748,0.07934484,0.03219581,0.73249507,0.19429511,-0.16892686,-0.011427511,0.32631585,-0.037563212,-0.58442,-0.6748641,-0.020428427,780.07324,811.50183,811.0989,778.46155,730.9158,-0.179443359375,-0.01495361328125,1.00616455078125,3.24493408203125,-1.607513427734375,0.79254150390625,1,1.0,1.0,1.0,1.0,55.00
2022-11-23 20:15:43.220,0.8074742,-0.029855475,-0.014760453,0.8814492,0.5856273,-0.08205741,-0.33047915,0.5499869,0.7978748,0.07934484,0.03219581,0.73249507,0.19429511,-0.16892686,-0.011427511,0.32631585,-0.037563212,-0.58442,-0.6748641,-0.020428427,826.0073,809.4872,805.4579,801.02563,703.1135,-0.179443359375,-0.01495361328125,1.00616455078125,3.24493408203125,-1.607513427734375,0.79254150390625,1,1.0,1.0,1.0,1.0,55.00
2022-11-23 20:15:43.245,0.8074742,-0.029855475,-0.014760453,0.8814492,0.5856273,-0.08205741,-0.33047915,0.5499869,0.7978748,0.07934484,0.03219581,0.73249507,0.19429511,-0.16892686,-0.011427511,0.32631585,-0.037563212,-0.58442,-0.6748641,-0.020428427,860.65936,811.50183,807.8755,832.8571,813.1135,-0.1722412109375,-0.012451171875,1.00225830078125,4.47113037109375,-0.4486083984375,1.502838134765625,1,1.0,1.0,1.0,1.0,55.00
2022-11-23 20:15:43.245,0.8074742,-0.029855475,-0.014760453,0.8814492,0.5856273,-0.08205741,-0.33047915,0.5499869,0.7978748,0.07934484,0.03219581,0.73249507,0.19429511,-0.16892686,-0.011427511,0.32631585,-0.037563212,-0.58442,-0.6748641,-0.020428427,823.1868,812.3077,817.1429,813.5165,814.3223,-0.1722412109375,-0.012451171875,1.00225830078125,4.47113037109375,-0.4486083984375,1.502838134765625,1,1.0,1.0,1.0,1.0,55.00
2022-11-23 20:15:43.246,0.8074742,-0.029855475,-0.014760453,0.8814492,0.5856273,-0.08205741,-0.33047915,0.5499869,0.7978748,0.07934484,0.03219581,0.73249507,0.19429511,-0.16892686,-0.011427511,0.32631585,-0.037563212,-0.58442,-0.6748641,-0.020428427,781.28204,809.0842,817.9487,793.7729,677.72894,-0.1722412109375,-0.012451171875,1.00225830078125,4.47113037109375,-0.4486083984375,1.502838134765625,1,1.0,1.0,1.0,1.0,55.00
2022-11-23 20:15:43.246,0.8074742,-0.029855475,-0.014760453,0.8814492,0.5856273,-0.08205741,-0.33047915,0.5499869,0.7978748,0.07934484,0.03219581,0.73249507,0.19429511,-0.16892686,-0.011427511,0.32631585,-0.037563212,-0.58442,-0.6748641,-0.020428427,807.47253,811.0989,812.3077,816.337,656.3736,-0.1722412109375,-0.012451171875,1.00225830078125,4.47113037109375,-0.4486083984375,1.502838134765625,1,1.0,1.0,1.0,1.0,55.00
2022-11-23 20:15:43.247,0.8074742,-0.029855475,-0.014760453,0.8814492,0.5856273,-0.08205741,-0.33047915,0.5499869,0.7978748,0.07934484,0.03219581,0.73249507,0.19429511,-0.16892686,-0.011427511,0.32631585,-0.037563212,-0.58442,-0.6748641,-0.020428427,848.5714,809.4872,811.50183,839.707,856.2271,-0.1722412109375,-0.012451171875,1.00225830078125,4.47113037109375,-0.4486083984375,1.502838134765625,1,1.0,1.0,1.0,1.0,55.00
2022-11-23 20:15:43.247,0.8074742,-0.029855475,-0.014760453,0.8814492,0.5856273,-0.08205741,-0.33047915,0.5499869,0.7978748,0.07934484,0.03219581,0.73249507,0.19429511,-0.16892686,-0.011427511,0.32631585,-0.037563212,-0.58442,-0.6748641,-0.020428427,828.8278,804.2491,809.89014,821.5751,991.2088,-0.1722412109375,-0.012451171875,1.00225830078125,4.47113037109375,-0.4486083984375,1.502838134765625,1,1.0,1.0,1.0,1.0,55.00
2022-11-23 20:15:43.247,0.8074742,-0.029855475,-0.014760453,0.8814492,0.5856273,-0.08205741,-0.33047915,0.5499869,0.7978748,0.07934484,0.03219581,0.73249507,0.19429511,-0.16892686,-0.011427511,0.32631585,-0.037563212,-0.58442,-0.6748641,-0.020428427,783.69965,805.05493,805.05493,786.52014,840.5128,-0.1722412109375,-0.012451171875,1.00225830078125,4.47113037109375,-0.4486083984375,1.502838134765625,1,1.0,1.0,1.0,1.0,55.00
2022-11-23 20:15:43.248,0.8074742,-0.029855475,-0.014760453,0.8814492,0.5856273,-0.08205741,-0.33047915,0.5499869,0.7978748,0.07934484,0.03219581,0.73249507,0.19429511,-0.16892686,-0.011427511,0.32631585,-0.037563212,-0.58442,-0.6748641,-0.020428427,788.1319,809.0842,808.2784,793.7729,756.7033,-0.1722412109375,-0.012451171875,1.00225830078125,4.47113037109375,-0.4486083984375,1.502838134765625,1,1.0,1.0,1.0,1.0,55.00
2022-11-23 20:15:43.248,0.8074742,-0.029855475,-0.014760453,0.8814492,0.5856273,-0.08205741,-0.33047915,0.5499869,0.7978748,0.07934484,0.03219581,0.73249507,0.19429511,-0.16892686,-0.011427511,0.32631585,-0.037563212,-0.58442,-0.6748641,-0.020428427,832.4542,811.0989,813.1135,830.84247,823.1868,-0.1722412109375,-0.012451171875,1.00225830078125,4.47113037109375,-0.4486083984375,1.502838134765625,1,1.0,1.0,1.0,1.0,55.00
2022-11-23 20:15:43.248,0.8074742,-0.029855475,-0.014760453,0.8814492,0.5856273,-0.08205741,-0.33047915,0.5499869,0.7978748,0.07934484,0.03219581,0.73249507,0.19429511,-0.16892686,-0.011427511,0.32631585,-0.037563212,-0.58442,-0.6748641,-0.020428427,838.49817,807.8755,807.0696,829.6337,967.4359,-0.1722412109375,-0.012451171875,1.00225830078125,4.47113037109375,-0.4486083984375,1.502838134765625,1,1.0,1.0,1.0,1.0,55.00
2022-11-23 20:15:43.248,0.8074742,-0.029855475,-0.014760453,0.8814492,0.5856273,-0.08205741,-0.33047915,0.5499869,0.7978748,0.07934484,0.03219581,0.73249507,0.19429511,-0.16892686,-0.011427511,0.32631585,-0.037563212,-0.58442,-0.6748641,-0.020428427,787.326,803.0403,802.6374,791.75824,850.989,-0.1722412109375,-0.012451171875,1.00225830078125,4.47113037109375,-0.4486083984375,1.502838134765625,1,1.0,1.0,1.0,1.0,55.00
2022-11-23 20:15:43.249,0.83482987,0.0025781037,-0.005085228,0.9153604,0.64808565,-0.052784305,-0.29635912,0.5977839,0.79809344,0.07462883,0.03219581,0.7359935,0.20991881,-0.17474261,4.5187477E-4,0.3460857,-0.064625844,-0.5617945,-0.6365728,-0.014963648,764.35895,802.6374,801.4286,779.2674,604.3956,-0.1722412109375,-0.012451171875,1.00225830078125,4.47113037109375,-0.4486083984375,1.502838134765625,1,1.0,1.0,1.0,1.0,55.00
2022-11-23 20:15:43.274,0.83482987,0.0025781037,-0.005085228,0.9153604,0.64808565,-0.052784305,-0.29635912,0.5977839,0.79809344,0.07462883,0.03219581,0.7359935,0.20991881,-0.17474261,4.5187477E-4,0.3460857,-0.064625844,-0.5617945,-0.6365728,-0.014963648,811.9048,804.2491,801.02563,810.293,827.619,-0.1845703125,-0.00396728515625,0.99188232421875,5.4730224609375,-0.16448974609375,1.74957275390625,1,1.0,1.0,1.0,1.0,55.00
2022-11-23 20:15:43.275,0.83482987,0.0025781037,-0.005085228,0.9153604,0.64808565,-0.052784305,-0.29635912,0.5977839,0.79809344,0.07462883,0.03219581,0.7359935,0.20991881,-0.17474261,4.5187477E-4,0.3460857,-0.064625844,-0.5617945,-0.6365728,-0.014963648,844.5421,804.2491,803.0403,826.8132,991.6117,-0.1845703125,-0.00396728515625,0.99188232421875,5.4730224609375,-0.16448974609375,1.74957275390625,1,1.0,1.0,1.0,1.0,55.00
2022-11-23 20:15:43.275,0.83482987,0.0025781037,-0.005085228,0.9153604,0.64808565,-0.052784305,-0.29635912,0.5977839,0.79809344,0.07462883,0.03219581,0.7359935,0.20991881,-0.17474261,4.5187477E-4,0.3460857,-0.064625844,-0.5617945,-0.6365728,-0.014963648,800.2198,805.8608,805.4579,802.23444,813.1135,-0.1845703125,-0.00396728515625,0.99188232421875,5.4730224609375,-0.16448974609375,1.74957275390625,1,1.0,1.0,1.0,1.0,55.00
2022-11-23 20:15:43.275,0.83482987,0.0025781037,-0.005085228,0.9153604,0.64808565,-0.052784305,-0.29635912,0.5977839,0.79809344,0.07462883,0.03219581,0.7359935,0.20991881,-0.17474261,4.5187477E-4,0.3460857,-0.064625844,-0.5617945,-0.6365728,-0.014963648,761.13556,804.65204,804.65204,777.6557,611.2454,-0.1845703125,-0.00396728515625,0.99188232421875,5.4730224609375,-0.16448974609375,1.74957275390625,1,1.0,1.0,1.0,1.0,55.00
2022-11-23 20:15:43.275,0.83482987,0.0025781037,-0.005085228,0.9153604,0.64808565,-0.052784305,-0.29635912,0.5977839,0.79809344,0.07462883,0.03219581,0.7359935,0.20991881,-0.17474261,4.5187477E-4,0.3460857,-0.064625844,-0.5617945,-0.6365728,-0.014963648,794.9817,800.6227,797.3993,789.34064,700.293,-0.1845703125,-0.00396728515625,0.99188232421875,5.4730224609375,-0.16448974609375,1.74957275390625,1,1.0,1.0,1.0,1.0,55.00
2022-11-23 20:15:43.275,0.83482987,0.0025781037,-0.005085228,0.9153604,0.64808565,-0.052784305,-0.29635912,0.5977839,0.79809344,0.07462883,0.03219581,0.7359935,0.20991881,-0.17474261,4.5187477E-4,0.3460857,-0.064625844,-0.5617945,-0.6365728,-0.014963648,838.49817,802.6374,794.9817,819.9634,938.4249,-0.1845703125,-0.00396728515625,0.99188232421875,5.4730224609375,-0.16448974609375,1.74957275390625,1,1.0,1.0,1.0,1.0,55.00
2022-11-23 20:15:43.276,0.83482987,0.0025781037,-0.005085228,0.9153604,0.64808565,-0.052784305,-0.29635912,0.5977839,0.79809344,0.07462883,0.03219581,0.7359935,0.20991881,-0.17474261,4.5187477E-4,0.3460857,-0.064625844,-0.5617945,-0.6365728,-0.014963648,819.9634,803.8461,799.81683,812.71063,926.337,-0.1845703125,-0.00396728515625,0.99188232421875,5.4730224609375,-0.16448974609375,1.74957275390625,1,1.0,1.0,1.0,1.0,55.00
2022-11-23 20:15:43.276,0.83482987,0.0025781037,-0.005085228,0.9153604,0.64808565,-0.052784305,-0.29635912,0.5977839,0.79809344,0.07462883,0.03219581,0.7359935,0.20991881,-0.17474261,4.5187477E-4,0.3460857,-0.064625844,-0.5617945,-0.6365728,-0.014963648,774.43225,801.8315,801.8315,789.7436,634.61536,-0.1845703125,-0.00396728515625,0.99188232421875,5.4730224609375,-0.16448974609375,1.74957275390625,1,1.0,1.0,1.0,1.0,55.00
2022-11-23 20:15:43.276,0.83482987,0.0025781037,-0.005085228,0.9153604,0.64808565,-0.052784305,-0.29635912,0.5977839,0.79809344,0.07462883,0.03219581,0.7359935,0.20991881,-0.17474261,4.5187477E-4,0.3460857,-0.064625844,-0.5617945,-0.6365728,-0.014963648,784.90845,797.8022,797.3993,801.4286,614.0659,-0.1845703125,-0.00396728515625,0.99188232421875,5.4730224609375,-0.16448974609375,1.74957275390625,1,1.0,1.0,1.0,1.0,55.00
2022-11-23 20:15:43.276,0.83482987,0.0025781037,-0.005085228,0.9153604,0.64808565,-0.052784305,-0.29635912,0.5977839,0.79809344,0.07462883,0.03219581,0.7359935,0.20991881,-0.17474261,4.5187477E-4,0.3460857,-0.064625844,-0.5617945,-0.6365728,-0.014963648,830.84247,799.41394,798.60803,830.4396,1104.8352,-0.1845703125,-0.00396728515625,0.99188232421875,5.4730224609375,-0.16448974609375,1.74957275390625,1,1.0,1.0,1.0,1.0,55.00
2022-11-23 20:15:43.276,0.83482987,0.0025781037,-0.005085228,0.9153604,0.64808565,-0.052784305,-0.29635912,0.5977839,0.79809344,0.07462883,0.03219581,0.7359935,0.20991881,-0.17474261,4.5187477E-4,0.3460857,-0.064625844,-0.5617945,-0.6365728,-0.014963648,826.8132,802.23444,802.6374,824.3956,1120.1465,-0.1845703125,-0.00396728515625,0.99188232421875,5.4730224609375,-0.16448974609375,1.74957275390625,1,1.0,1.0,1.0,1.0,55.00
2022-11-23 20:15:43.277,0.83482987,0.0025781037,-0.005085228,0.9153604,0.64808565,-0.052784305,-0.29635912,0.5977839,0.79809344,0.07462883,0.03219581,0.7359935,0.20991881,-0.17474261,4.5187477E-4,0.3460857,-0.064625844,-0.5617945,-0.6365728,-0.014963648,779.2674,799.81683,799.41394,784.90845,723.2601,-0.1845703125,-0.00396728515625,0.99188232421875,5.4730224609375,-0.16448974609375,1.74957275390625,1,1.0,1.0,1.0,1.0,55.00
2022-11-23 20:15:43.323,0.83482987,0.0025781037,-0.005085228,0.9153604,0.64808565,-0.052784305,-0.29635912,0.5977839,0.79809344,0.07462883,0.03219581,0.7359935,0.20991881,-0.17474261,4.5187477E-4,0.3460857,-0.064625844,-0.5617945,-0.6365728,-0.014963648,775.2381,798.60803,795.78754,776.8498,640.65936,-0.18914794921875,0.00335693359375,1.01458740234375,5.323486328125,2.071075439453125,3.282318115234375,1,1.0,1.0,1.0,1.0,55.00
2022-11-23 20:15:43.324,0.83482987,0.0025781037,-0.005085228,0.9153604,0.64808565,-0.052784305,-0.29635912,0.5977839,0.79809344,0.07462883,0.03219581,0.7359935,0.20991881,-0.17474261,4.5187477E-4,0.3460857,-0.064625844,-0.5617945,-0.6365728,-0.014963648,826.0073,800.2198,799.41394,820.3663,744.21246,-0.18914794921875,0.00335693359375,1.01458740234375,5.323486328125,2.071075439453125,3.282318115234375,1,1.0,1.0,1.0,1.0,55.00
2022-11-23 20:15:43.324,0.83482987,0.0025781037,-0.005085228,0.9153604,0.64808565,-0.052784305,-0.29635912,0.5977839,0.79809344,0.07462883,0.03219581,0.7359935,0.20991881,-0.17474261,4.5187477E-4,0.3460857,-0.064625844,-0.5617945,-0.6365728,-0.014963648,833.2601,800.2198,804.65204,828.022,842.9304,-0.18914794921875,0.00335693359375,1.01458740234375,5.323486328125,2.071075439453125,3.282318115234375,1,1.0,1.0,1.0,1.0,55.00
2022-11-23 20:15:43.324,0.83482987,0.0025781037,-0.005085228,0.9153604,0.64808565,-0.052784305,-0.29635912,0.5977839,0.79809344,0.07462883,0.03219581,0.7359935,0.20991881,-0.17474261,4.5187477E-4,0.3460857,-0.064625844,-0.5617945,-0.6365728,-0.014963648,788.5348,801.8315,805.4579,790.14655,797.3993,-0.18914794921875,0.00335693359375,1.01458740234375,5.323486328125,2.071075439453125,3.282318115234375,1,1.0,1.0,1.0,1.0,55.00
2022-11-23 20:15:43.324,0.83482987,0.0025781037,-0.005085228,0.9153604,0.64808565,-0.052784305,-0.29635912,0.5977839,0.79809344,0.07462883,0.03219581,0.7359935,0.20991881,-0.17474261,4.5187477E-4,0.3460857,-0.064625844,-0.5617945,-0.6365728,-0.014963648,766.77655,805.05493,806.6667,778.46155,771.2088,-0.18914794921875,0.00335693359375,1.01458740234375,5.323486328125,2.071075439453125,3.282318115234375,1,1.0,1.0,1.0,1.0,55.00
2022-11-23 20:15:43.325,0.83482987,0.0025781037,-0.005085228,0.9153604,0.64808565,-0.052784305,-0.29635912,0.5977839,0.79809344,0.07462883,0.03219581,0.7359935,0.20991881,-0.17474261,4.5187477E-4,0.3460857,-0.064625844,-0.5617945,-0.6365728,-0.014963648,802.23444,801.8315,805.4579,803.0403,846.1539,-0.18914794921875,0.00335693359375,1.01458740234375,5.323486328125,2.071075439453125,3.282318115234375,1,1.0,1.0,1.0,1.0,55.00
2022-11-23 20:15:43.325,0.83482987,0.0025781037,-0.005085228,0.9153604,0.64808565,-0.052784305,-0.29635912,0.5977839,0.79809344,0.07462883,0.03219581,0.7359935,0.20991881,-0.17474261,4.5187477E-4,0.3460857,-0.064625844,-0.5617945,-0.6365728,-0.014963648,831.2454,802.23444,799.41394,816.7399,910.6227,-0.18914794921875,0.00335693359375,1.01458740234375,5.323486328125,2.071075439453125,3.282318115234375,1,1.0,1.0,1.0,1.0,55.00
2022-11-23 20:15:43.325,0.83482987,0.0025781037,-0.005085228,0.9153604,0.64808565,-0.052784305,-0.29635912,0.5977839,0.79809344,0.07462883,0.03219581,0.7359935,0.20991881,-0.17474261,4.5187477E-4,0.3460857,-0.064625844,-0.5617945,-0.6365728,-0.014963648,792.96704,805.05493,799.81683,787.72894,732.52747,-0.18914794921875,0.00335693359375,1.01458740234375,5.323486328125,2.071075439453125,3.282318115234375,1,1.0,1.0,1.0,1.0,55.00
2022-11-23 20:15:43.325,0.83482987,0.0025781037,-0.005085228,0.9153604,0.64808565,-0.052784305,-0.29635912,0.5977839,0.79809344,0.07462883,0.03219581,0.7359935,0.20991881,-0.17474261,4.5187477E-4,0.3460857,-0.064625844,-0.5617945,-0.6365728,-0.014963648,759.5238,804.65204,801.8315,770.40295,743.4066,-0.18914794921875,0.00335693359375,1.01458740234375,5.323486328125,2.071075439453125,3.282318115234375,1,1.0,1.0,1.0,1.0,55.00
2022-11-23 20:15:43.326,0.83482987,0.0025781037,-0.005085228,0.9153604,0.64808565,-0.052784305,-0.29635912,0.5977839,0.79809344,0.07462883,0.03219581,0.7359935,0.20991881,-0.17474261,4.5187477E-4,0.3460857,-0.064625844,-0.5617945,-0.6365728,-0.014963648,788.93774,805.05493,807.0696,790.54944,929.9634,-0.18914794921875,0.00335693359375,1.01458740234375,5.323486328125,2.071075439453125,3.282318115234375,1,1.0,1.0,1.0,1.0,55.00
2022-11-23 20:15:43.326,0.83482987,0.0025781037,-0.005085228,0.9153604,0.64808565,-0.052784305,-0.29635912,0.5977839,0.79809344,0.07462883,0.03219581,0.7359935,0.20991881,-0.17474261,4.5187477E-4,0.3460857,-0.064625844,-0.5617945,-0.6365728,-0.014963648,829.6337,809.89014,812.71063,821.978,865.4945,-0.18914794921875,0.00335693359375,1.01458740234375,5.323486328125,2.071075439453125,3.282318115234375,1,1.0,1.0,1.0,1.0,55.00
2022-11-23 20:15:43.326,0.83482987,0.0025781037,-0.005085228,0.9153604,0.64808565,-0.052784305,-0.29635912,0.5977839,0.79809344,0.07462883,0.03219581,0.7359935,0.20991881,-0.17474261,4.5187477E-4,0.3460857,-0.064625844,-0.5617945,-0.6365728,-0.014963648,810.293,808.68134,811.0989,806.6667,836.8865,-0.18914794921875,0.00335693359375,1.01458740234375,5.323486328125,2.071075439453125,3.282318115234375,1,1.0,1.0,1.0,1.0,55.00
2022-11-23 20:15:43.374,0.83482987,0.0025781037,-0.005085228,0.9153604,0.64808565,-0.052784305,-0.29635912,0.5977839,0.79809344,0.07462883,0.03219581,0.7359935,0.20991881,-0.17474261,4.5187477E-4,0.3460857,-0.064625844,-0.5617945,-0.6365728,-0.014963648,768.3883,804.65204,806.26373,772.4176,857.8388,-0.2110595703125,0.0096435546875,0.9884033203125,5.630035400390625,1.0467529296875,4.344024658203125,1,1.0,1.0,1.0,1.0,55.00
2022-11-23 20:15:43.375,0.8618369,0.022124304,7.288069E-4,0.9349852,0.70029676,-0.028421918,-0.26450598,0.6426888,0.79809344,0.07743378,0.03219581,0.7359935,0.2198812,-0.18182775,0.011338039,0.3692837,-0.093992434,-0.5413752,-0.6027675,-0.01417418,779.67035,806.26373,809.89014,793.7729,803.44324,-0.2110595703125,0.0096435546875,0.9884033203125,5.630035400390625,1.0467529296875,4.344024658203125,1,1.0,1.0,1.0,1.0,55.00
2022-11-23 20:15:43.376,0.8618369,0.022124304,7.288069E-4,0.9349852,0.70029676,-0.028421918,-0.26450598,0.6426888,0.79809344,0.07743378,0.03219581,0.7359935,0.2198812,-0.18182775,0.011338039,0.3692837,-0.093992434,-0.5413752,-0.6027675,-0.01417418,823.9927,805.05493,817.9487,838.9011,828.4249,-0.2110595703125,0.0096435546875,0.9884033203125,5.630035400390625,1.0467529296875,4.344024658203125,1,1.0,1.0,1.0,1.0,55.00
2022-11-23 20:15:43.376,0.8618369,0.022124304,7.288069E-4,0.9349852,0.70029676,-0.028421918,-0.26450598,0.6426888,0.79809344,0.07743378,0.03219581,0.7359935,0.2198812,-0.18182775,0.011338039,0.3692837,-0.093992434,-0.5413752,-0.6027675,-0.01417418,826.0073,805.05493,814.3223,841.31866,882.01465,-0.2110595703125,0.0096435546875,0.9884033203125,5.630035400390625,1.0467529296875,4.344024658203125,1,1.0,1.0,1.0,1.0,55.00
2022-11-23 20:15:43.377,0.8618369,0.022124304,7.288069E-4,0.9349852,0.70029676,-0.028421918,-0.26450598,0.6426888,0.79809344,0.07743378,0.03219581,0.7359935,0.2198812,-0.18182775,0.011338039,0.3692837,-0.093992434,-0.5413752,-0.6027675,-0.01417418,780.87915,805.4579,815.5311,801.8315,704.3223,-0.2110595703125,0.0096435546875,0.9884033203125,5.630035400390625,1.0467529296875,4.344024658203125,1,1.0,1.0,1.0,1.0,55.00
2022-11-23 20:15:43.377,0.8618369,0.022124304,7.288069E-4,0.9349852,0.70029676,-0.028421918,-0.26450598,0.6426888,0.79809344,0.07743378,0.03219581,0.7359935,0.2198812,-0.18182775,0.011338039,0.3692837,-0.093992434,-0.5413752,-0.6027675,-0.01417418,773.6264,805.4579,816.337,797.3993,674.10254,-0.2110595703125,0.0096435546875,0.9884033203125,5.630035400390625,1.0467529296875,4.344024658203125,1,1.0,1.0,1.0,1.0,55.00
2022-11-23 20:15:43.377,0.8618369,0.022124304,7.288069E-4,0.9349852,0.70029676,-0.028421918,-0.26450598,0.6426888,0.79809344,0.07743378,0.03219581,0.7359935,0.2198812,-0.18182775,0.011338039,0.3692837,-0.093992434,-0.5413752,-0.6027675,-0.01417418,829.6337,808.68134,813.5165,833.663,869.5238,-0.2110595703125,0.0096435546875,0.9884033203125,5.630035400390625,1.0467529296875,4.344024658203125,1,1.0,1.0,1.0,1.0,55.00
2022-11-23 20:15:43.377,0.8618369,0.022124304,7.288069E-4,0.9349852,0.70029676,-0.028421918,-0.26450598,0.6426888,0.79809344,0.07743378,0.03219581,0.7359935,0.2198812,-0.18182775,0.011338039,0.3692837,-0.093992434,-0.5413752,-0.6027675,-0.01417418,854.21246,813.91943,817.9487,841.31866,897.72894,-0.2110595703125,0.0096435546875,0.9884033203125,5.630035400390625,1.0467529296875,4.344024658203125,1,1.0,1.0,1.0,1.0,55.00
2022-11-23 20:15:43.378,0.8618369,0.022124304,7.288069E-4,0.9349852,0.70029676,-0.028421918,-0.26450598,0.6426888,0.79809344,0.07743378,0.03219581,0.7359935,0.2198812,-0.18182775,0.011338039,0.3692837,-0.093992434,-0.5413752,-0.6027675,-0.01417418,803.0403,813.5165,815.12823,806.6667,908.60803,-0.2110595703125,0.0096435546875,0.9884033203125,5.630035400390625,1.0467529296875,4.344024658203125,1,1.0,1.0,1.0,1.0,55.00
2022-11-23 20:15:43.378,0.8618369,0.022124304,7.288069E-4,0.9349852,0.70029676,-0.028421918,-0.26450598,0.6426888,0.79809344,0.07743378,0.03219581,0.7359935,0.2198812,-0.18182775,0.011338039,0.3692837,-0.093992434,-0.5413752,-0.6027675,-0.01417418,772.4176,810.696,810.696,787.72894,725.2747,-0.2110595703125,0.0096435546875,0.9884033203125,5.630035400390625,1.0467529296875,4.344024658203125,1,1.0,1.0,1.0,1.0,55.00
2022-11-23 20:15:43.378,0.8618369,0.022124304,7.288069E-4,0.9349852,0.70029676,-0.028421918,-0.26450598,0.6426888,0.79809344,0.07743378,0.03219581,0.7359935,0.2198812,-0.18182775,0.011338039,0.3692837,-0.093992434,-0.5413752,-0.6027675,-0.01417418,809.4872,810.293,811.50183,812.71063,696.6667,-0.2110595703125,0.0096435546875,0.9884033203125,5.630035400390625,1.0467529296875,4.344024658203125,1,1.0,1.0,1.0,1.0,55.00
2022-11-23 20:15:43.378,0.8618369,0.022124304,7.288069E-4,0.9349852,0.70029676,-0.028421918,-0.26450598,0.6426888,0.79809344,0.07743378,0.03219581,0.7359935,0.2198812,-0.18182775,0.011338039,0.3692837,-0.093992434,-0.5413752,-0.6027675,-0.01417418,846.9597,811.0989,812.71063,828.8278,935.2015,-0.2110595703125,0.0096435546875,0.9884033203125,5.630035400390625,1.0467529296875,4.344024658203125,1,1.0,1.0,1.0,1.0,55.00
2022-11-23 20:15:43.424,0.8618369,0.022124304,7.288069E-4,0.9349852,0.70029676,-0.028421918,-0.26450598,0.6426888,0.79809344,0.07743378,0.03219581,0.7359935,0.2198812,-0.18182775,0.011338039,0.3692837,-0.093992434,-0.5413752,-0.6027675,-0.01417418,813.91943,809.89014,817.9487,803.44324,844.1392,-0.2110595703125,0.0096435546875,0.9884033203125,5.630035400390625,1.0467529296875,4.344024658203125,1,1.0,1.0,1.0,1.0,55.00
2022-11-23 20:15:43.424,0.8618369,0.022124304,7.288069E-4,0.9349852,0.70029676,-0.028421918,-0.26450598,0.6426888,0.79809344,0.07743378,0.03219581,0.7359935,0.2198812,-0.18182775,0.011338039,0.3692837,-0.093992434,-0.5413752,-0.6027675,-0.01417418,776.8498,812.3077,815.12823,783.69965,653.1502,-0.2110595703125,0.0096435546875,0.9884033203125,5.630035400390625,1.0467529296875,4.344024658203125,1,1.0,1.0,1.0,1.0,55.00
2022-11-23 20:15:43.425,0.8618369,0.022124304,7.288069E-4,0.9349852,0.70029676,-0.028421918,-0.26450598,0.6426888,0.79809344,0.07743378,0.03219581,0.7359935,0.2198812,-0.18182775,0.011338039,0.3692837,-0.093992434,-0.5413752,-0.6027675,-0.01417418,807.0696,815.5311,813.91943,810.696,744.21246,-0.2110595703125,0.0096435546875,0.9884033203125,5.630035400390625,1.0467529296875,4.344024658203125,1,1.0,1.0,1.0,1.0,55.00
2022-11-23 20:15:43.425,0.8618369,0.022124304,7.288069E-4,0.9349852,0.70029676,-0.028421918,-0.26450598,0.6426888,0.79809344,0.07743378,0.03219581,0.7359935,0.2198812,-0.18182775,0.011338039,0.3692837,-0.093992434,-0.5413752,-0.6027675,-0.01417418,845.34796,814.3223,811.50183,836.08057,1014.9817,-0.2110595703125,0.0096435546875,0.9884033203125,5.630035400390625,1.0467529296875,4.344024658203125,1,1.0,1.0,1.0,1.0,55.00
2022-11-23 20:15:43.425,0.8618369,0.022124304,7.288069E-4,0.9349852,0.70029676,-0.028421918,-0.26450598,0.6426888,0.79809344,0.07743378,0.03219581,0.7359935,0.2198812,-0.18182775,0.011338039,0.3692837,-0.093992434,-0.5413752,-0.6027675,-0.01417418,825.6044,815.12823,807.8755,813.5165,991.6117,-0.2110595703125,0.0096435546875,0.9884033203125,5.630035400390625,1.0467529296875,4.344024658203125,1,1.0,1.0,1.0,1.0,55.00
2022-11-23 20:15:43.425,0.8618369,0.022124304,7.288069E-4,0.9349852,0.70029676,-0.028421918,-0.26450598,0.6426888,0.79809344,0.07743378,0.03219581,0.7359935,0.2198812,-0.18182775,0.011338039,0.3692837,-0.093992434,-0.5413752,-0.6027675,-0.01417418,780.87915,814.3223,811.0989,786.1172,826.8132,-0.2110595703125,0.0096435546875,0.9884033203125,5.630035400390625,1.0467529296875,4.344024658203125,1,1.0,1.0,1.0,1.0,55.00
2022-11-23 20:15:43.426,0.8618369,0.022124304,7.288069E-4,0.9349852,0.70029676,-0.028421918,-0.26450598,0.6426888,0.79809344,0.07743378,0.03219581,0.7359935,0.2198812,-0.18182775,0.011338039,0.3692837,-0.093992434,-0.5413752,-0.6027675,-0.01417418,793.7729,812.71063,805.4579,801.4286,919.89014,-0.2110595703125,0.0096435546875,0.9884033203125,5.630035400390625,1.0467529296875,4.344024658203125,1,1.0,1.0,1.0,1.0,55.00
2022-11-23 20:15:43.426,0.8618369,0.022124304,7.288069E-4,0.9349852,0.70029676,-0.028421918,-0.26450598,0.6426888,0.79809344,0.07743378,0.03219581,0.7359935,0.2198812,-0.18182775,0.011338039,0.3692837,-0.093992434,-0.5413752,-0.6027675,-0.01417418,836.8865,813.1135,805.05493,833.2601,1097.1794,-0.2110595703125,0.0096435546875,0.9884033203125,5.630035400390625,1.0467529296875,4.344024658203125,1,1.0,1.0,1.0,1.0,55.00
2022-11-23 20:15:43.426,0.8618369,0.022124304,7.288069E-4,0.9349852,0.70029676,-0.028421918,-0.26450598,0.6426888,0.79809344,0.07743378,0.03219581,0.7359935,0.2198812,-0.18182775,0.011338039,0.3692837,-0.093992434,-0.5413752,-0.6027675,-0.01417418,834.4689,811.50183,804.2491,820.7692,1059.3041,-0.2110595703125,0.0096435546875,0.9884033203125,5.630035400390625,1.0467529296875,4.344024658203125,1,1.0,1.0,1.0,1.0,55.00
2022-11-23 20:15:43.426,0.8618369,0.022124304,7.288069E-4,0.9349852,0.70029676,-0.028421918,-0.26450598,0.6426888,0.79809344,0.07743378,0.03219581,0.7359935,0.2198812,-0.18182775,0.011338039,0.3692837,-0.093992434,-0.5413752,-0.6027675,-0.01417418,789.34064,808.68134,803.44324,780.07324,709.15753,-0.2110595703125,0.0096435546875,0.9884033203125,5.630035400390625,1.0467529296875,4.344024658203125,1,1.0,1.0,1.0,1.0,55.00
2022-11-23 20:15:43.427,0.8618369,0.022124304,7.288069E-4,0.9349852,0.70029676,-0.028421918,-0.26450598,0.6426888,0.79809344,0.07743378,0.03219581,0.7359935,0.2198812,-0.18182775,0.011338039,0.3692837,-0.093992434,-0.5413752,-0.6027675,-0.01417418,779.67035,809.0842,799.81683,780.07324,591.9048,-0.2110595703125,0.0096435546875,0.9884033203125,5.630035400390625,1.0467529296875,4.344024658203125,1,1.0,1.0,1.0,1.0,55.00
2022-11-23 20:15:43.427,0.8618369,0.022124304,7.288069E-4,0.9349852,0.70029676,-0.028421918,-0.26450598,0.6426888,0.79809344,0.07743378,0.03219581,0.7359935,0.2198812,-0.18182775,0.011338039,0.3692837,-0.093992434,-0.5413752,-0.6027675,-0.01417418,828.4249,810.293,799.011,815.5311,745.42126,-0.2110595703125,0.0096435546875,0.9884033203125,5.630035400390625,1.0467529296875,4.344024658203125,1,1.0,1.0,1.0,1.0,55.00
2022-11-23 20:15:43.474,0.8618369,0.022124304,7.288069E-4,0.9349852,0.70029676,-0.028421918,-0.26450598,0.6426888,0.79809344,0.07743378,0.03219581,0.7359935,0.2198812,-0.18182775,0.011338039,0.3692837,-0.093992434,-0.5413752,-0.6027675,-0.01417418,866.30035,813.91943,801.4286,830.84247,851.39197,-0.17529296875,0.00152587890625,0.98883056640625,3.00567626953125,-0.979461669921875,4.269256591796875,1,1.0,1.0,1.0,1.0,55.00
2022-11-23 20:15:43.474,0.8618369,0.022124304,7.288069E-4,0.9349852,0.70029676,-0.028421918,-0.26450598,0.6426888,0.79809344,0.07743378,0.03219581,0.7359935,0.2198812,-0.18182775,0.011338039,0.3692837,-0.093992434,-0.5413752,-0.6027675,-0.01417418,845.34796,811.9048,801.8315,830.0366,755.4945,-0.17529296875,0.00152587890625,0.98883056640625,3.00567626953125,-0.979461669921875,4.269256591796875,1,1.0,1.0,1.0,1.0,55.00
2022-11-23 20:15:43.475,0.8618369,0.022124304,7.288069E-4,0.9349852,0.70029676,-0.028421918,-0.26450598,0.6426888,0.79809344,0.07743378,0.03219581,0.7359935,0.2198812,-0.18182775,0.011338039,0.3692837,-0.093992434,-0.5413752,-0.6027675,-0.01417418,805.05493,804.2491,813.1135,818.3516,626.9597,-0.17529296875,0.00152587890625,0.98883056640625,3.00567626953125,-0.979461669921875,4.269256591796875,1,1.0,1.0,1.0,1.0,55.00
2022-11-23 20:15:43.475,0.8813841,0.026745874,0.004854837,0.9398917,0.7600363,-0.0038715745,-0.2280326,0.6910335,0.7980421,0.10641286,0.03219581,0.7359935,0.22358178,-0.18889542,0.018698843,0.3916963,-0.11680103,-0.5282905,-0.56910735,-0.009302647,806.6667,803.44324,817.1429,820.3663,752.27106,-0.17529296875,0.00152587890625,0.98883056640625,3.00567626953125,-0.979461669921875,4.269256591796875,1,1.0,1.0,1.0,1.0,55.00
2022-11-23 20:15:43.476,0.8813841,0.026745874,0.004854837,0.9398917,0.7600363,-0.0038715745,-0.2280326,0.6910335,0.7980421,0.10641286,0.03219581,0.7359935,0.22358178,-0.18889542,0.018698843,0.3916963,-0.11680103,-0.5282905,-0.56910735,-0.009302647,811.0989,800.2198,815.5311,813.91943,971.06226,-0.17529296875,0.00152587890625,0.98883056640625,3.00567626953125,-0.979461669921875,4.269256591796875,1,1.0,1.0,1.0,1.0,55.00
2022-11-23 20:15:43.476,0.8813841,0.026745874,0.004854837,0.9398917,0.7600363,-0.0038715745,-0.2280326,0.6910335,0.7980421,0.10641286,0.03219581,0.7359935,0.22358178,-0.18889542,0.018698843,0.3916963,-0.11680103,-0.5282905,-0.56910735,-0.009302647,765.56775,790.9524,818.3516,771.6117,904.17584,-0.17529296875,0.00152587890625,0.98883056640625,3.00567626953125,-0.979461669921875,4.269256591796875,1,1.0,1.0,1.0,1.0,55.00
2022-11-23 20:15:43.477,0.8813841,0.026745874,0.004854837,0.9398917,0.7600363,-0.0038715745,-0.2280326,0.6910335,0.7980421,0.10641286,0.03219581,0.7359935,0.22358178,-0.18889542,0.018698843,0.3916963,-0.11680103,-0.5282905,-0.56910735,-0.009302647,730.5128,789.34064,821.1722,749.85345,768.7912,-0.17529296875,0.00152587890625,0.98883056640625,3.00567626953125,-0.979461669921875,4.269256591796875,1,1.0,1.0,1.0,1.0,55.00
2022-11-23 20:15:43.477,0.8813841,0.026745874,0.004854837,0.9398917,0.7600363,-0.0038715745,-0.2280326,0.6910335,0.7980421,0.10641286,0.03219581,0.7359935,0.22358178,-0.18889542,0.018698843,0.3916963,-0.11680103,-0.5282905,-0.56910735,-0.009302647,738.97437,787.326,825.6044,754.2857,1139.4872,-0.17529296875,0.00152587890625,0.98883056640625,3.00567626953125,-0.979461669921875,4.269256591796875,1,1.0,1.0,1.0,1.0,55.00
2022-11-23 20:15:43.477,0.8813841,0.026745874,0.004854837,0.9398917,0.7600363,-0.0038715745,-0.2280326,0.6910335,0.7980421,0.10641286,0.03219581,0.7359935,0.22358178,-0.18889542,0.018698843,0.3916963,-0.11680103,-0.5282905,-0.56910735,-0.009302647,761.9414,783.2967,834.0659,768.3883,1215.641,-0.17529296875,0.00152587890625,0.98883056640625,3.00567626953125,-0.979461669921875,4.269256591796875,1,1.0,1.0,1.0,1.0,55.00
2022-11-23 20:15:43.477,0.8813841,0.026745874,0.004854837,0.9398917,0.7600363,-0.0038715745,-0.2280326,0.6910335,0.7980421,0.10641286,0.03219581,0.7359935,0.22358178,-0.18889542,0.018698843,0.3916963,-0.11680103,-0.5282905,-0.56910735,-0.009302647,744.21246,781.685,841.31866,753.0769,758.315,-0.17529296875,0.00152587890625,0.98883056640625,3.00567626953125,-0.979461669921875,4.269256591796875,1,1.0,1.0,1.0,1.0,55.00
2022-11-23 20:15:43.478,0.8813841,0.026745874,0.004854837,0.9398917,0.7600363,-0.0038715745,-0.2280326,0.6910335,0.7980421,0.10641286,0.03219581,0.7359935,0.22358178,-0.18889542,0.018698843,0.3916963,-0.11680103,-0.5282905,-0.56910735,-0.009302647,695.4579,775.64105,840.10986,716.8132,596.7399,-0.17529296875,0.00152587890625,0.98883056640625,3.00567626953125,-0.979461669921875,4.269256591796875,1,1.0,1.0,1.0,1.0,55.00
2022-11-23 20:15:43.478,0.8813841,0.026745874,0.004854837,0.9398917,0.7600363,-0.0038715745,-0.2280326,0.6910335,0.7980421,0.10641286,0.03219581,0.7359935,0.22358178,-0.18889542,0.018698843,0.3916963,-0.11680103,-0.5282905,-0.56910735,-0.009302647,691.4286,774.0293,842.9304,720.84247,594.7253,-0.17529296875,0.00152587890625,0.98883056640625,3.00567626953125,-0.979461669921875,4.269256591796875,1,1.0,1.0,1.0,1.0,55.00
2022-11-23 20:15:43.523,0.8813841,0.026745874,0.004854837,0.9398917,0.7600363,-0.0038715745,-0.2280326,0.6910335,0.7980421,0.10641286,0.03219581,0.7359935,0.22358178,-0.18889542,0.018698843,0.3916963,-0.11680103,-0.5282905,-0.56910735,-0.009302647,724.4689,774.43225,850.989,739.7802,780.4762,-0.18487548828125,-0.00225830078125,1.00653076171875,5.42816162109375,-1.263580322265625,9.07684326171875,1,1.0,1.0,1.0,1.0,55.00
2022-11-23 20:15:43.524,0.8813841,0.026745874,0.004854837,0.9398917,0.7600363,-0.0038715745,-0.2280326,0.6910335,0.7980421,0.10641286,0.03219581,0.7359935,0.22358178,-0.18889542,0.018698843,0.3916963,-0.11680103,-0.5282905,-0.56910735,-0.009302647,728.9011,767.98535,849.7802,736.9597,910.2198,-0.18487548828125,-0.00225830078125,1.00653076171875,5.42816162109375,-1.263580322265625,9.07684326171875,1,1.0,1.0,1.0,1.0,55.00
2022-11-23 20:15:43.524,0.8813841,0.026745874,0.004854837,0.9398917,0.7600363,-0.0038715745,-0.2280326,0.6910335,0.7980421,0.10641286,0.03219581,0.7359935,0.22358178,-0.18889542,0.018698843,0.3916963,-0.11680103,-0.5282905,-0.56910735,-0.009302647,682.96704,764.7619,846.55676,712.381,789.7436,-0.18487548828125,-0.00225830078125,1.00653076171875,5.42816162109375,-1.263580322265625,9.07684326171875,1,1.0,1.0,1.0,1.0,55.00
2022-11-23 20:15:43.524,0.8813841,0.026745874,0.004854837,0.9398917,0.7600363,-0.0038715745,-0.2280326,0.6910335,0.7980421,0.10641286,0.03219581,0.7359935,0.22358178,-0.18889542,0.018698843,0.3916963,-0.11680103,-0.5282905,-0.56910735,-0.009302647,657.98535,764.35895,854.61536,700.696,622.52747,-0.18487548828125,-0.00225830078125,1.00653076171875,5.42816162109375,-1.263580322265625,9.07684326171875,1,1.0,1.0,1.0,1.0,55.00
2022-11-23 20:15:43.524,0.8813841,0.026745874,0.004854837,0.9398917,0.7600363,-0.0038715745,-0.2280326,0.6910335,0.7980421,0.10641286,0.03219581,0.7359935,0.22358178,-0.18889542,0.018698843,0.3916963,-0.11680103,-0.5282905,-0.56910735,-0.009302647,693.8461,761.9414,860.2564,734.5421,646.30035,-0.18487548828125,-0.00225830078125,1.00653076171875,5.42816162109375,-1.263580322265625,9.07684326171875,1,1.0,1.0,1.0,1.0,55.00
2022-11-23 20:15:43.525,0.8813841,0.026745874,0.004854837,0.9398917,0.7600363,-0.0038715745,-0.2280326,0.6910335,0.7980421,0.10641286,0.03219581,0.7359935,0.22358178,-0.18889542,0.018698843,0.3916963,-0.11680103,-0.5282905,-0.56910735,-0.009302647,722.0513,758.315,860.2564,749.45056,782.49084,-0.18487548828125,-0.00225830078125,1.00653076171875,5.42816162109375,-1.263580322265625,9.07684326171875,1,1.0,1.0,1.0,1.0,55.00
2022-11-23 20:15:43.525,0.8813841,0.026745874,0.004854837,0.9398917,0.7600363,-0.0038715745,-0.2280326,0.6910335,0.7980421,0.10641286,0.03219581,0.7359935,0.22358178,-0.18889542,0.018698843,0.3916963,-0.11680103,-0.5282905,-0.56910735,-0.009302647,693.0403,759.92676,861.06226,721.2454,880.40295,-0.18487548828125,-0.00225830078125,1.00653076171875,5.42816162109375,-1.263580322265625,9.07684326171875,1,1.0,1.0,1.0,1.0,55.00
2022-11-23 20:15:43.525,0.8813841,0.026745874,0.004854837,0.9398917,0.7600363,-0.0038715745,-0.2280326,0.6910335,0.7980421,0.10641286,0.03219581,0.7359935,0.22358178,-0.18889542,0.018698843,0.3916963,-0.11680103,-0.5282905,-0.56910735,-0.009302647,670.87915,759.92676,861.4652,708.3516,825.2015,-0.18487548828125,-0.00225830078125,1.00653076171875,5.42816162109375,-1.263580322265625,9.07684326171875,1,1.0,1.0,1.0,1.0,55.00
2022-11-23 20:15:43.525,0.8813841,0.026745874,0.004854837,0.9398917,0.7600363,-0.0038715745,-0.2280326,0.6910335,0.7980421,0.10641286,0.03219581,0.7359935,0.22358178,-0.18889542,0.018698843,0.3916963,-0.11680103,-0.5282905,-0.56910735,-0.009302647,709.15753,755.89746,862.674,744.21246,670.07324,-0.18487548828125,-0.00225830078125,1.00653076171875,5.42816162109375,-1.263580322265625,9.07684326171875,1,1.0,1.0,1.0,1.0,55.00
2022-11-23 20:15:43.525,0.8813841,0.026745874,0.004854837,0.9398917,0.7600363,-0.0038715745,-0.2280326,0.6910335,0.7980421,0.10641286,0.03219581,0.7359935,0.22358178,-0.18889542,0.018698843,0.3916963,-0.11680103,-0.5282905,-0.56910735,-0.009302647,753.8828,756.7033,871.53845,789.7436,773.22345,-0.18487548828125,-0.00225830078125,1.00653076171875,5.42816162109375,-1.263580322265625,9.07684326171875,1,1.0,1.0,1.0,1.0,55.00
2022-11-23 20:15:43.526,0.8813841,0.026745874,0.004854837,0.9398917,0.7600363,-0.0038715745,-0.2280326,0.6910335,0.7980421,0.10641286,0.03219581,0.7359935,0.22358178,-0.18889542,0.018698843,0.3916963,-0.11680103,-0.5282905,-0.56910735,-0.009302647,724.87177,757.50916,870.32965,759.92676,819.5604,-0.18487548828125,-0.00225830078125,1.00653076171875,5.42816162109375,-1.263580322265625,9.07684326171875,1,1.0,1.0,1.0,1.0,55.00
2022-11-23 20:15:43.526,0.8813841,0.026745874,0.004854837,0.9398917,0.7600363,-0.0038715745,-0.2280326,0.6910335,0.7980421,0.10641286,0.03219581,0.7359935,0.22358178,-0.18889542,0.018698843,0.3916963,-0.11680103,-0.5282905,-0.56910735,-0.009302647,697.47253,757.1062,861.06226,734.1392,671.28204,-0.18487548828125,-0.00225830078125,1.00653076171875,5.42816162109375,-1.263580322265625,9.07684326171875,1,1.0,1.0,1.0,1.0,55.00
2022-11-23 20:15:43.573,0.8813841,0.026745874,0.004854837,0.9398917,0.7600363,-0.0038715745,-0.2280326,0.6910335,0.7980421,0.10641286,0.03219581,0.7359935,0.22358178,-0.18889542,0.018698843,0.3916963,-0.11680103,-0.5282905,-0.56910735,-0.009302647,730.9158,760.32965,866.30035,764.35895,622.9304,-0.16058349609375,0.01611328125,1.02191162109375,1.09161376953125,1.15142822265625,15.372314453125,1,1.0,1.0,1.0,1.0,55.00
2022-11-23 20:15:43.573,0.8813841,0.026745874,0.004854837,0.9398917,0.7600363,-0.0038715745,-0.2280326,0.6910335,0.7980421,0.10641286,0.03219581,0.7359935,0.22358178,-0.18889542,0.018698843,0.3916963,-0.11680103,-0.5282905,-0.56910735,-0.009302647,771.6117,760.7326,866.30035,783.2967,787.326,-0.16058349609375,0.01611328125,1.02191162109375,1.09161376953125,1.15142822265625,15.372314453125,1,1.0,1.0,1.0,1.0,55.00
2022-11-23 20:15:43.574,0.8813841,0.026745874,0.004854837,0.9398917,0.7600363,-0.0038715745,-0.2280326,0.6910335,0.7980421,0.10641286,0.03219581,0.7359935,0.22358178,-0.18889542,0.018698843,0.3916963,-0.11680103,-0.5282905,-0.56910735,-0.009302647,775.2381,762.74725,858.24176,789.7436,857.8388,-0.16058349609375,0.01611328125,1.02191162109375,1.09161376953125,1.15142822265625,15.372314453125,1,1.0,1.0,1.0,1.0,55.00
2022-11-23 20:15:43.574,0.8813841,0.026745874,0.004854837,0.9398917,0.7600363,-0.0038715745,-0.2280326,0.6910335,0.7980421,0.10641286,0.03219581,0.7359935,0.22358178,-0.18889542,0.018698843,0.3916963,-0.11680103,-0.5282905,-0.56910735,-0.009302647,739.7802,771.2088,860.2564,774.43225,750.65936,-0.16058349609375,0.01611328125,1.02191162109375,1.09161376953125,1.15142822265625,15.372314453125,1,1.0,1.0,1.0,1.0,55.00
2022-11-23 20:15:43.574,0.8813841,0.026745874,0.004854837,0.9398917,0.7600363,-0.0038715745,-0.2280326,0.6910335,0.7980421,0.10641286,0.03219581,0.7359935,0.22358178,-0.18889542,0.018698843,0.3916963,-0.11680103,-0.5282905,-0.56910735,-0.009302647,732.52747,770.80585,857.03296,766.77655,687.8022,-0.16058349609375,0.01611328125,1.02191162109375,1.09161376953125,1.15142822265625,15.372314453125,1,1.0,1.0,1.0,1.0,55.00
2022-11-23 20:15:43.574,0.8916729,0.03550148,0.07655081,0.94388,0.78173536,0.035547875,-0.1636897,0.7037358,0.7980421,0.16720665,0.041704517,0.7359935,0.22629786,-0.19645907,0.020727031,0.40509123,-0.11994017,-0.52722156,-0.5295066,0.0017581843,771.6117,768.7912,851.39197,796.5934,867.50916,-0.16058349609375,0.01611328125,1.02191162109375,1.09161376953125,1.15142822265625,15.372314453125,1,1.0,1.0,1.0,1.0,55.00
2022-11-23 20:15:43.575,0.8916729,0.03550148,0.07655081,0.94388,0.78173536,0.035547875,-0.1636897,0.7037358,0.7980421,0.16720665,0.041704517,0.7359935,0.22629786,-0.19645907,0.020727031,0.40509123,-0.11994017,-0.52722156,-0.5295066,0.0017581843,785.31134,774.43225,849.7802,803.44324,1114.5055,-0.16058349609375,0.01611328125,1.02191162109375,1.09161376953125,1.15142822265625,15.372314453125,1,1.0,1.0,1.0,1.0,55.00
2022-11-23 20:15:43.575,0.8916729,0.03550148,0.07655081,0.94388,0.78173536,0.035547875,-0.1636897,0.7037358,0.7980421,0.16720665,0.041704517,0.7359935,0.22629786,-0.19645907,0.020727031,0.40509123,-0.11994017,-0.52722156,-0.5295066,0.0017581843,750.65936,776.4469,850.58606,778.0586,909.011,-0.16058349609375,0.01611328125,1.02191162109375,1.09161376953125,1.15142822265625,15.372314453125,1,1.0,1.0,1.0,1.0,55.00
2022-11-23 20:15:43.576,0.8916729,0.03550148,0.07655081,0.94388,0.78173536,0.035547875,-0.1636897,0.7037358,0.7980421,0.16720665,0.041704517,0.7359935,0.22629786,-0.19645907,0.020727031,0.40509123,-0.11994017,-0.52722156,-0.5295066,0.0017581843,736.9597,774.83514,846.55676,768.3883,608.022,-0.16058349609375,0.01611328125,1.02191162109375,1.09161376953125,1.15142822265625,15.372314453125,1,1.0,1.0,1.0,1.0,55.00
2022-11-23 20:15:43.576,0.8916729,0.03550148,0.07655081,0.94388,0.78173536,0.035547875,-0.1636897,0.7037358,0.7980421,0.16720665,0.041704517,0.7359935,0.22629786,-0.19645907,0.020727031,0.40509123,-0.11994017,-0.52722156,-0.5295066,0.0017581843,780.87915,776.4469,839.707,806.26373,760.7326,-0.16058349609375,0.01611328125,1.02191162109375,1.09161376953125,1.15142822265625,15.372314453125,1,1.0,1.0,1.0,1.0,55.00
2022-11-23 20:15:43.576,0.8916729,0.03550148,0.07655081,0.94388,0.78173536,0.035547875,-0.1636897,0.7037358,0.7980421,0.16720665,0.041704517,0.7359935,0.22629786,-0.19645907,0.020727031,0.40509123,-0.11994017,-0.52722156,-0.5295066,0.0017581843,807.47253,777.25275,838.49817,826.8132,940.4396,-0.16058349609375,0.01611328125,1.02191162109375,1.09161376953125,1.15142822265625,15.372314453125,1,1.0,1.0,1.0,1.0,55.00
2022-11-23 20:15:43.576,0.8916729,0.03550148,0.07655081,0.94388,0.78173536,0.035547875,-0.1636897,0.7037358,0.7980421,0.16720665,0.041704517,0.7359935,0.22629786,-0.19645907,0.020727031,0.40509123,-0.11994017,-0.52722156,-0.5295066,0.0017581843,773.6264,779.2674,836.8865,798.20514,793.7729,-0.16058349609375,0.01611328125,1.02191162109375,1.09161376953125,1.15142822265625,15.372314453125,1,1.0,1.0,1.0,1.0,55.00
2022-11-23 20:15:43.625,0.8916729,0.03550148,0.07655081,0.94388,0.78173536,0.035547875,-0.1636897,0.7037358,0.7980421,0.16720665,0.041704517,0.7359935,0.22629786,-0.19645907,0.020727031,0.40509123,-0.11994017,-0.52722156,-0.5295066,0.0017581843,747.8388,780.07324,833.2601,783.69965,718.4249,-0.2025146484375,0.001953125,1.0084228515625,-3.15521240234375,1.577606201171875,19.073333740234375,1,1.0,1.0,1.0,1.0,55.00
2022-11-23 20:15:43.625,0.8916729,0.03550148,0.07655081,0.94388,0.78173536,0.035547875,-0.1636897,0.7037358,0.7980421,0.16720665,0.041704517,0.7359935,0.22629786,-0.19645907,0.020727031,0.40509123,-0.11994017,-0.52722156,-0.5295066,0.0017581843,776.4469,780.4762,826.4103,803.0403,832.4542,-0.2025146484375,0.001953125,1.0084228515625,-3.15521240234375,1.577606201171875,19.073333740234375,1,1.0,1.0,1.0,1.0,55.00
2022-11-23 20:15:43.625,0.8916729,0.03550148,0.07655081,0.94388,0.78173536,0.035547875,-0.1636897,0.7037358,0.7980421,0.16720665,0.041704517,0.7359935,0.22629786,-0.19645907,0.020727031,0.40509123,-0.11994017,-0.52722156,-0.5295066,0.0017581843,820.7692,782.0879,825.6044,830.4396,936.8132,-0.2025146484375,0.001953125,1.0084228515625,-3.15521240234375,1.577606201171875,19.073333740234375,1,1.0,1.0,1.0,1.0,55.00
2022-11-23 20:15:43.626,0.8916729,0.03550148,0.07655081,0.94388,0.78173536,0.035547875,-0.1636897,0.7037358,0.7980421,0.16720665,0.041704517,0.7359935,0.22629786,-0.19645907,0.020727031,0.40509123,-0.11994017,-0.52722156,-0.5295066,0.0017581843,808.2784,782.49084,821.978,817.1429,757.9121,-0.2025146484375,0.001953125,1.0084228515625,-3.15521240234375,1.577606201171875,19.073333740234375,1,1.0,1.0,1.0,1.0,55.00
2022-11-23 20:15:43.626,0.8916729,0.03550148,0.07655081,0.94388,0.78173536,0.035547875,-0.1636897,0.7037358,0.7980421,0.16720665,0.041704517,0.7359935,0.22629786,-0.19645907,0.020727031,0.40509123,-0.11994017,-0.52722156,-0.5295066,0.0017581843,767.1795,785.7143,815.9341,790.54944,545.56775,-0.2025146484375,0.001953125,1.0084228515625,-3.15521240234375,1.577606201171875,19.073333740234375,1,1.0,1.0,1.0,1.0,55.00
2022-11-23 20:15:43.626,0.8916729,0.03550148,0.07655081,0.94388,0.78173536,0.035547875,-0.1636897,0.7037358,0.7980421,0.16720665,0.041704517,0.7359935,0.22629786,-0.19645907,0.020727031,0.40509123,-0.11994017,-0.52722156,-0.5295066,0.0017581843,781.685,792.1612,813.1135,805.4579,743.8095,-0.2025146484375,0.001953125,1.0084228515625,-3.15521240234375,1.577606201171875,19.073333740234375,1,1.0,1.0,1.0,1.0,55.00
2022-11-23 20:15:43.627,0.8916729,0.03550148,0.07655081,0.94388,0.78173536,0.035547875,-0.1636897,0.7037358,0.7980421,0.16720665,0.041704517,0.7359935,0.22629786,-0.19645907,0.020727031,0.40509123,-0.11994017,-0.52722156,-0.5295066,0.0017581843,826.8132,792.5641,808.68134,835.2747,934.3956,-0.2025146484375,0.001953125,1.0084228515625,-3.15521240234375,1.577606201171875,19.073333740234375,1,1.0,1.0,1.0,1.0,55.00
2022-11-23 20:15:43.627,0.8916729,0.03550148,0.07655081,0.94388,0.78173536,0.035547875,-0.1636897,0.7037358,0.7980421,0.16720665,0.041704517,0.7359935,0.22629786,-0.19645907,0.020727031,0.40509123,-0.11994017,-0.52722156,-0.5295066,0.0017581843,819.15753,790.54944,808.68134,830.84247,844.1392,-0.2025146484375,0.001953125,1.0084228515625,-3.15521240234375,1.577606201171875,19.073333740234375,1,1.0,1.0,1.0,1.0,55.00
2022-11-23 20:15:43.627,0.8916729,0.03550148,0.07655081,0.94388,0.78173536,0.035547875,-0.1636897,0.7037358,0.7980421,0.16720665,0.041704517,0.7359935,0.22629786,-0.19645907,0.020727031,0.40509123,-0.11994017,-0.52722156,-0.5295066,0.0017581843,780.4762,793.36993,812.3077,805.4579,684.9817,-0.2025146484375,0.001953125,1.0084228515625,-3.15521240234375,1.577606201171875,19.073333740234375,1,1.0,1.0,1.0,1.0,55.00
2022-11-23 20:15:43.627,0.8916729,0.03550148,0.07655081,0.94388,0.78173536,0.035547875,-0.1636897,0.7037358,0.7980421,0.16720665,0.041704517,0.7359935,0.22629786,-0.19645907,0.020727031,0.40509123,-0.11994017,-0.52722156,-0.5295066,0.0017581843,781.28204,796.5934,811.9048,806.26373,739.3773,-0.2025146484375,0.001953125,1.0084228515625,-3.15521240234375,1.577606201171875,19.073333740234375,1,1.0,1.0,1.0,1.0,55.00
2022-11-23 20:15:43.628,0.8916729,0.03550148,0.07655081,0.94388,0.78173536,0.035547875,-0.1636897,0.7037358,0.7980421,0.16720665,0.041704517,0.7359935,0.22629786,-0.19645907,0.020727031,0.40509123,-0.11994017,-0.52722156,-0.5295066,0.0017581843,821.978,797.3993,808.2784,834.0659,906.1905,-0.2025146484375,0.001953125,1.0084228515625,-3.15521240234375,1.577606201171875,19.073333740234375,1,1.0,1.0,1.0,1.0,55.00
2022-11-23 20:15:43.628,0.8916729,0.03550148,0.07655081,0.94388,0.78173536,0.035547875,-0.1636897,0.7037358,0.7980421,0.16720665,0.041704517,0.7359935,0.22629786,-0.19645907,0.020727031,0.40509123,-0.11994017,-0.52722156,-0.5295066,0.0017581843,840.5128,801.02563,811.50183,841.7216,883.22345,-0.2025146484375,0.001953125,1.0084228515625,-3.15521240234375,1.577606201171875,19.073333740234375,1,1.0,1.0,1.0,1.0,55.00
2022-11-23 20:15:43.674,0.8916729,0.03550148,0.07655081,0.94388,0.78173536,0.035547875,-0.1636897,0.7037358,0.7980421,0.16720665,0.041704517,0.7359935,0.22629786,-0.19645907,0.020727031,0.40509123,-0.11994017,-0.52722156,-0.5295066,0.0017581843,808.2784,804.2491,811.9048,813.1135,758.315,-0.2025146484375,0.001953125,1.0084228515625,-3.15521240234375,1.577606201171875,19.073333740234375,1,1.0,1.0,1.0,1.0,55.00
2022-11-23 20:15:43.675,0.8916729,0.03550148,0.07655081,0.94388,0.78173536,0.035547875,-0.1636897,0.7037358,0.7980421,0.16720665,0.041704517,0.7359935,0.22629786,-0.19645907,0.020727031,0.40509123,-0.11994017,-0.52722156,-0.5295066,0.0017581843,779.67035,801.8315,811.50183,799.41394,633.00366,-0.2025146484375,0.001953125,1.0084228515625,-3.15521240234375,1.577606201171875,19.073333740234375,1,1.0,1.0,1.0,1.0,55.00
2022-11-23 20:15:43.675,0.8916729,0.03550148,0.07655081,0.94388,0.78173536,0.035547875,-0.1636897,0.7037358,0.7980421,0.16720665,0.041704517,0.7359935,0.22629786,-0.19645907,0.020727031,0.40509123,-0.11994017,-0.52722156,-0.5295066,0.0017581843,821.5751,800.2198,811.50183,834.0659,744.61536,-0.2025146484375,0.001953125,1.0084228515625,-3.15521240234375,1.577606201171875,19.073333740234375,1,1.0,1.0,1.0,1.0,55.00
2022-11-23 20:15:43.675,0.8916729,0.03550148,0.07655081,0.94388,0.78173536,0.035547875,-0.1636897,0.7037358,0.7980421,0.16720665,0.041704517,0.7359935,0.22629786,-0.19645907,0.020727031,0.40509123,-0.11994017,-0.52722156,-0.5295066,0.0017581843,861.06226,798.20514,809.4872,861.4652,866.30035,-0.2025146484375,0.001953125,1.0084228515625,-3.15521240234375,1.577606201171875,19.073333740234375,1,1.0,1.0,1.0,1.0,55.00
2022-11-23 20:15:43.676,0.8916729,0.03550148,0.07655081,0.94388,0.78173536,0.035547875,-0.1636897,0.7037358,0.7980421,0.16720665,0.041704517,0.7359935,0.22629786,-0.19645907,0.020727031,0.40509123,-0.11994017,-0.52722156,-0.5295066,0.0017581843,822.381,794.57874,806.6667,835.6777,781.28204,-0.2025146484375,0.001953125,1.0084228515625,-3.15521240234375,1.577606201171875,19.073333740234375,1,1.0,1.0,1.0,1.0,55.00
2022-11-23 20:15:43.676,0.8916729,0.03550148,0.07655081,0.94388,0.78173536,0.035547875,-0.1636897,0.7037358,0.7980421,0.16720665,0.041704517,0.7359935,0.22629786,-0.19645907,0.020727031,0.40509123,-0.11994017,-0.52722156,-0.5295066,0.0017581843,790.14655,795.78754,804.2491,807.8755,809.89014,-0.2025146484375,0.001953125,1.0084228515625,-3.15521240234375,1.577606201171875,19.073333740234375,1,1.0,1.0,1.0,1.0,55.00
2022-11-23 20:15:43.676,0.8916729,0.03550148,0.07655081,0.94388,0.78173536,0.035547875,-0.1636897,0.7037358,0.7980421,0.16720665,0.041704517,0.7359935,0.22629786,-0.19645907,0.020727031,0.40509123,-0.11994017,-0.52722156,-0.5295066,0.0017581843,823.5897,797.8022,804.2491,830.0366,834.0659,-0.2025146484375,0.001953125,1.0084228515625,-3.15521240234375,1.577606201171875,19.073333740234375,1,1.0,1.0,1.0,1.0,55.00
2022-11-23 20:15:43,,,,,,,,,,,,,,,,,,,,,,,,,,,,,,,,,,,,,,/muse/elements/blink
2022-11-23 20:15:43.676,0.8954491,0.1234378,0.23205033,0.9464746,0.8065718,0.11416543,-0.03893518,0.7199689,0.7980421,0.19310336,0.12015653,0.7359935,0.23015597,-0.2052703,0.01600969,0.4196031,-0.117663145,-0.5382064,-0.48448744,0.016426519,865.09155,801.8315,810.696,869.92676,933.9927,-0.2025146484375,0.001953125,1.0084228515625,-3.15521240234375,1.577606201171875,19.073333740234375,1,1.0,1.0,1.0,1.0,55.00
2022-11-23 20:15:43.678,0.8954491,0.1234378,0.23205033,0.9464746,0.8065718,0.11416543,-0.03893518,0.7199689,0.7980421,0.19310336,0.12015653,0.7359935,0.23015597,-0.2052703,0.01600969,0.4196031,-0.117663145,-0.5382064,-0.48448744,0.016426519,852.6007,805.05493,811.9048,857.03296,1025.8608,-0.2025146484375,0.001953125,1.0084228515625,-3.15521240234375,1.577606201171875,19.073333740234375,1,1.0,1.0,1.0,1.0,55.00
2022-11-23 20:15:43.678,0.8954491,0.1234378,0.23205033,0.9464746,0.8065718,0.11416543,-0.03893518,0.7199689,0.7980421,0.19310336,0.12015653,0.7359935,0.23015597,-0.2052703,0.01600969,0.4196031,-0.117663145,-0.5382064,-0.48448744,0.016426519,803.0403,807.47253,810.293,826.0073,949.304,-0.2025146484375,0.001953125,1.0084228515625,-3.15521240234375,1.577606201171875,19.073333740234375,1,1.0,1.0,1.0,1.0,55.00
2022-11-23 20:15:43.678,0.8954491,0.1234378,0.23205033,0.9464746,0.8065718,0.11416543,-0.03893518,0.7199689,0.7980421,0.19310336,0.12015653,0.7359935,0.23015597,-0.2052703,0.01600969,0.4196031,-0.117663145,-0.5382064,-0.48448744,0.016426519,809.0842,804.2491,811.50183,830.84247,741.79486,-0.2025146484375,0.001953125,1.0084228515625,-3.15521240234375,1.577606201171875,19.073333740234375,1,1.0,1.0,1.0,1.0,55.00
2022-11-23 20:15:43.678,0.8954491,0.1234378,0.23205033,0.9464746,0.8065718,0.11416543,-0.03893518,0.7199689,0.7980421,0.19310336,0.12015653,0.7359935,0.23015597,-0.2052703,0.01600969,0.4196031,-0.117663145,-0.5382064,-0.48448744,0.016426519,863.47986,800.2198,813.1135,866.30035,701.9048,-0.2025146484375,0.001953125,1.0084228515625,-3.15521240234375,1.577606201171875,19.073333740234375,1,1.0,1.0,1.0,1.0,55.00
2022-11-23 20:15:43.700,0.8954491,0.1234378,0.23205033,0.9464746,0.8065718,0.11416543,-0.03893518,0.7199689,0.7980421,0.19310336,0.12015653,0.7359935,0.23015597,-0.2052703,0.01600969,0.4196031,-0.117663145,-0.5382064,-0.48448744,0.016426519,860.2564,797.3993,810.293,873.5531,806.6667,-0.21429443359375,-0.00579833984375,0.97747802734375,-5.016937255859375,1.68975830078125,12.7703857421875,1,1.0,1.0,1.0,1.0,55.00
2022-11-23 20:15:43.700,0.8954491,0.1234378,0.23205033,0.9464746,0.8065718,0.11416543,-0.03893518,0.7199689,0.7980421,0.19310336,0.12015653,0.7359935,0.23015597,-0.2052703,0.01600969,0.4196031,-0.117663145,-0.5382064,-0.48448744,0.016426519,813.91943,800.2198,808.68134,834.87177,705.5311,-0.21429443359375,-0.00579833984375,0.97747802734375,-5.016937255859375,1.68975830078125,12.7703857421875,1,1.0,1.0,1.0,1.0,55.00
2022-11-23 20:15:43.701,0.8954491,0.1234378,0.23205033,0.9464746,0.8065718,0.11416543,-0.03893518,0.7199689,0.7980421,0.19310336,0.12015653,0.7359935,0.23015597,-0.2052703,0.01600969,0.4196031,-0.117663145,-0.5382064,-0.48448744,0.016426519,799.41394,805.4579,806.6667,817.1429,598.7546,-0.21429443359375,-0.00579833984375,0.97747802734375,-5.016937255859375,1.68975830078125,12.7703857421875,1,1.0,1.0,1.0,1.0,55.00
2022-11-23 20:15:43.701,0.8954491,0.1234378,0.23205033,0.9464746,0.8065718,0.11416543,-0.03893518,0.7199689,0.7980421,0.19310336,0.12015653,0.7359935,0.23015597,-0.2052703,0.01600969,0.4196031,-0.117663145,-0.5382064,-0.48448744,0.016426519,840.5128,802.6374,797.8022,841.7216,739.7802,-0.21429443359375,-0.00579833984375,0.97747802734375,-5.016937255859375,1.68975830078125,12.7703857421875,1,1.0,1.0,1.0,1.0,55.00
2022-11-23 20:15:43.701,0.8954491,0.1234378,0.23205033,0.9464746,0.8065718,0.11416543,-0.03893518,0.7199689,0.7980421,0.19310336,0.12015653,0.7359935,0.23015597,-0.2052703,0.01600969,0.4196031,-0.117663145,-0.5382064,-0.48448744,0.016426519,865.89746,804.2491,794.9817,853.8095,945.2747,-0.21429443359375,-0.00579833984375,0.97747802734375,-5.016937255859375,1.68975830078125,12.7703857421875,1,1.0,1.0,1.0,1.0,55.00
2022-11-23 20:15:43.702,0.8954491,0.1234378,0.23205033,0.9464746,0.8065718,0.11416543,-0.03893518,0.7199689,0.7980421,0.19310336,0.12015653,0.7359935,0.23015597,-0.2052703,0.01600969,0.4196031,-0.117663145,-0.5382064,-0.48448744,0.016426519,823.1868,808.2784,797.3993,824.7985,856.63007,-0.21429443359375,-0.00579833984375,0.97747802734375,-5.016937255859375,1.68975830078125,12.7703857421875,1,1.0,1.0,1.0,1.0,55.00
2022-11-23 20:15:43.702,0.8954491,0.1234378,0.23205033,0.9464746,0.8065718,0.11416543,-0.03893518,0.7199689,0.7980421,0.19310336,0.12015653,0.7359935,0.23015597,-0.2052703,0.01600969,0.4196031,-0.117663145,-0.5382064,-0.48448744,0.016426519,786.1172,808.2784,795.38464,795.78754,682.5641,-0.21429443359375,-0.00579833984375,0.97747802734375,-5.016937255859375,1.68975830078125,12.7703857421875,1,1.0,1.0,1.0,1.0,55.00
2022-11-23 20:15:43.702,0.8954491,0.1234378,0.23205033,0.9464746,0.8065718,0.11416543,-0.03893518,0.7199689,0.7980421,0.19310336,0.12015653,0.7359935,0.23015597,-0.2052703,0.01600969,0.4196031,-0.117663145,-0.5382064,-0.48448744,0.016426519,815.9341,807.47253,792.96704,816.7399,709.5604,-0.21429443359375,-0.00579833984375,0.97747802734375,-5.016937255859375,1.68975830078125,12.7703857421875,1,1.0,1.0,1.0,1.0,55.00
2022-11-23 20:15:43.703,0.8954491,0.1234378,0.23205033,0.9464746,0.8065718,0.11416543,-0.03893518,0.7199689,0.7980421,0.19310336,0.12015653,0.7359935,0.23015597,-0.2052703,0.01600969,0.4196031,-0.117663145,-0.5382064,-0.48448744,0.016426519,853.4066,810.293,794.9817,849.7802,961.79486,-0.21429443359375,-0.00579833984375,0.97747802734375,-5.016937255859375,1.68975830078125,12.7703857421875,1,1.0,1.0,1.0,1.0,55.00
2022-11-23 20:15:43.703,0.8954491,0.1234378,0.23205033,0.9464746,0.8065718,0.11416543,-0.03893518,0.7199689,0.7980421,0.19310336,0.12015653,0.7359935,0.23015597,-0.2052703,0.01600969,0.4196031,-0.117663145,-0.5382064,-0.48448744,0.016426519,826.8132,816.337,797.3993,826.8132,1004.5055,-0.21429443359375,-0.00579833984375,0.97747802734375,-5.016937255859375,1.68975830078125,12.7703857421875,1,1.0,1.0,1.0,1.0,55.00
2022-11-23 20:15:43.703,0.8954491,0.1234378,0.23205033,0.9464746,0.8065718,0.11416543,-0.03893518,0.7199689,0.7980421,0.19310336,0.12015653,0.7359935,0.23015597,-0.2052703,0.01600969,0.4196031,-0.117663145,-0.5382064,-0.48448744,0.016426519,784.5055,818.3516,794.17584,788.5348,644.2857,-0.21429443359375,-0.00579833984375,0.97747802734375,-5.016937255859375,1.68975830078125,12.7703857421875,1,1.0,1.0,1.0,1.0,55.00
2022-11-23 20:15:43.703,0.8954491,0.1234378,0.23205033,0.9464746,0.8065718,0.11416543,-0.03893518,0.7199689,0.7980421,0.19310336,0.12015653,0.7359935,0.23015597,-0.2052703,0.01600969,0.4196031,-0.117663145,-0.5382064,-0.48448744,0.016426519,808.2784,812.71063,790.14655,803.0403,567.326,-0.21429443359375,-0.00579833984375,0.97747802734375,-5.016937255859375,1.68975830078125,12.7703857421875,1,1.0,1.0,1.0,1.0,55.00
2022-11-23 20:15:43.762,0.8954491,0.1234378,0.23205033,0.9464746,0.8065718,0.11416543,-0.03893518,0.7199689,0.7980421,0.19310336,0.12015653,0.7359935,0.23015597,-0.2052703,0.01600969,0.4196031,-0.117663145,-0.5382064,-0.48448744,0.016426519,854.21246,816.7399,796.1905,835.2747,926.7399,-0.22528076171875,-0.00164794921875,0.9803466796875,1.435546875,0.79254150390625,6.14593505859375,1,1.0,1.0,1.0,1.0,55.00
2022-11-23 20:15:43.762,0.8954491,0.1234378,0.23205033,0.9464746,0.8065718,0.11416543,-0.03893518,0.7199689,0.7980421,0.19310336,0.12015653,0.7359935,0.23015597,-0.2052703,0.01600969,0.4196031,-0.117663145,-0.5382064,-0.48448744,0.016426519,844.94507,821.5751,802.6374,822.381,1027.8755,-0.22528076171875,-0.00164794921875,0.9803466796875,1.435546875,0.79254150390625,6.14593505859375,1,1.0,1.0,1.0,1.0,55.00
2022-11-23 20:15:43.763,0.8954491,0.1234378,0.23205033,0.9464746,0.8065718,0.11416543,-0.03893518,0.7199689,0.7980421,0.19310336,0.12015653,0.7359935,0.23015597,-0.2052703,0.01600969,0.4196031,-0.117663145,-0.5382064,-0.48448744,0.016426519,797.3993,816.7399,799.81683,782.0879,684.9817,-0.22528076171875,-0.00164794921875,0.9803466796875,1.435546875,0.79254150390625,6.14593505859375,1,1.0,1.0,1.0,1.0,55.00
2022-11-23 20:15:43.763,0.8954491,0.1234378,0.23205033,0.9464746,0.8065718,0.11416543,-0.03893518,0.7199689,0.7980421,0.19310336,0.12015653,0.7359935,0.23015597,-0.2052703,0.01600969,0.4196031,-0.117663145,-0.5382064,-0.48448744,0.016426519,789.7436,813.1135,797.3993,782.0879,612.4542,-0.22528076171875,-0.00164794921875,0.9803466796875,1.435546875,0.79254150390625,6.14593505859375,1,1.0,1.0,1.0,1.0,55.00
2022-11-23 20:15:43.763,0.8954491,0.1234378,0.23205033,0.9464746,0.8065718,0.11416543,-0.03893518,0.7199689,0.7980421,0.19310336,0.12015653,0.7359935,0.23015597,-0.2052703,0.01600969,0.4196031,-0.117663145,-0.5382064,-0.48448744,0.016426519,839.707,813.91943,800.2198,818.7546,826.0073,-0.22528076171875,-0.00164794921875,0.9803466796875,1.435546875,0.79254150390625,6.14593505859375,1,1.0,1.0,1.0,1.0,55.00
2022-11-23 20:15:43.764,0.8954491,0.1234378,0.23205033,0.9464746,0.8065718,0.11416543,-0.03893518,0.7199689,0.7980421,0.19310336,0.12015653,0.7359935,0.23015597,-0.2052703,0.01600969,0.4196031,-0.117663145,-0.5382064,-0.48448744,0.016426519,846.55676,815.9341,802.23444,824.7985,950.5128,-0.22528076171875,-0.00164794921875,0.9803466796875,1.435546875,0.79254150390625,6.14593505859375,1,1.0,1.0,1.0,1.0,55.00
2022-11-23 20:15:43.764,0.8954491,0.1234378,0.23205033,0.9464746,0.8065718,0.11416543,-0.03893518,0.7199689,0.7980421,0.19310336,0.12015653,0.7359935,0.23015597,-0.2052703,0.01600969,0.4196031,-0.117663145,-0.5382064,-0.48448744,0.016426519,788.5348,813.1135,798.20514,788.5348,732.1245,-0.22528076171875,-0.00164794921875,0.9803466796875,1.435546875,0.79254150390625,6.14593505859375,1,1.0,1.0,1.0,1.0,55.00
2022-11-23 20:15:43.764,0.8954491,0.1234378,0.23205033,0.9464746,0.8065718,0.11416543,-0.03893518,0.7199689,0.7980421,0.19310336,0.12015653,0.7359935,0.23015597,-0.2052703,0.01600969,0.4196031,-0.117663145,-0.5382064,-0.48448744,0.016426519,770.0,810.696,792.1612,770.0,581.8315,-0.22528076171875,-0.00164794921875,0.9803466796875,1.435546875,0.79254150390625,6.14593505859375,1,1.0,1.0,1.0,1.0,55.00
2022-11-23 20:15:43.765,0.8954491,0.1234378,0.23205033,0.9464746,0.8065718,0.11416543,-0.03893518,0.7199689,0.7980421,0.19310336,0.12015653,0.7359935,0.23015597,-0.2052703,0.01600969,0.4196031,-0.117663145,-0.5382064,-0.48448744,0.016426519,819.5604,813.1135,793.36993,805.8608,934.7985,-0.22528076171875,-0.00164794921875,0.9803466796875,1.435546875,0.79254150390625,6.14593505859375,1,1.0,1.0,1.0,1.0,55.00
2022-11-23 20:15:43.765,0.893973,0.36106944,0.50195754,0.9496136,0.8350619,0.26075745,0.18267143,0.7406324,0.7980421,0.22970045,0.26444063,0.7312511,0.2401718,-0.2125785,0.0072185127,0.4364132,-0.11337263,-0.5544809,-0.44008204,0.0321524,846.9597,814.7253,799.41394,826.0073,1045.6044,-0.22528076171875,-0.00164794921875,0.9803466796875,1.435546875,0.79254150390625,6.14593505859375,1,1.0,1.0,1.0,1.0,55.00
2022-11-23 20:15:43.766,0.893973,0.36106944,0.50195754,0.9496136,0.8350619,0.26075745,0.18267143,0.7406324,0.7980421,0.22970045,0.26444063,0.7312511,0.2401718,-0.2125785,0.0072185127,0.4364132,-0.11337263,-0.5544809,-0.44008204,0.0321524,804.2491,813.91943,798.60803,794.9817,748.6447,-0.22528076171875,-0.00164794921875,0.9803466796875,1.435546875,0.79254150390625,6.14593505859375,1,1.0,1.0,1.0,1.0,55.00
2022-11-23 20:15:43.767,0.893973,0.36106944,0.50195754,0.9496136,0.8350619,0.26075745,0.18267143,0.7406324,0.7980421,0.22970045,0.26444063,0.7312511,0.2401718,-0.2125785,0.0072185127,0.4364132,-0.11337263,-0.5544809,-0.44008204,0.0321524,760.7326,807.8755,796.1905,774.43225,707.1429,-0.22528076171875,-0.00164794921875,0.9803466796875,1.435546875,0.79254150390625,6.14593505859375,1,1.0,1.0,1.0,1.0,55.00
2022-11-23 20:15:43.794,0.893973,0.36106944,0.50195754,0.9496136,0.8350619,0.26075745,0.18267143,0.7406324,0.7980421,0.22970045,0.26444063,0.7312511,0.2401718,-0.2125785,0.0072185127,0.4364132,-0.11337263,-0.5544809,-0.44008204,0.0321524,791.75824,804.2491,796.99634,798.20514,865.89746,-0.23931884765625,0.00836181640625,0.987548828125,6.213226318359375,2.056121826171875,-0.22430419921875,1,1.0,1.0,1.0,1.0,55.00
2022-11-23 20:15:43.794,0.893973,0.36106944,0.50195754,0.9496136,0.8350619,0.26075745,0.18267143,0.7406324,0.7980421,0.22970045,0.26444063,0.7312511,0.2401718,-0.2125785,0.0072185127,0.4364132,-0.11337263,-0.5544809,-0.44008204,0.0321524,840.5128,805.8608,799.011,826.4103,873.5531,-0.23931884765625,0.00836181640625,0.987548828125,6.213226318359375,2.056121826171875,-0.22430419921875,1,1.0,1.0,1.0,1.0,55.00
2022-11-23 20:15:43.795,0.893973,0.36106944,0.50195754,0.9496136,0.8350619,0.26075745,0.18267143,0.7406324,0.7980421,0.22970045,0.26444063,0.7312511,0.2401718,-0.2125785,0.0072185127,0.4364132,-0.11337263,-0.5544809,-0.44008204,0.0321524,813.5165,807.47253,801.8315,809.89014,772.01465,-0.23931884765625,0.00836181640625,0.987548828125,6.213226318359375,2.056121826171875,-0.22430419921875,1,1.0,1.0,1.0,1.0,55.00
2022-11-23 20:15:43.795,0.893973,0.36106944,0.50195754,0.9496136,0.8350619,0.26075745,0.18267143,0.7406324,0.7980421,0.22970045,0.26444063,0.7312511,0.2401718,-0.2125785,0.0072185127,0.4364132,-0.11337263,-0.5544809,-0.44008204,0.0321524,767.98535,803.8461,801.4286,780.87915,672.0879,-0.23931884765625,0.00836181640625,0.987548828125,6.213226318359375,2.056121826171875,-0.22430419921875,1,1.0,1.0,1.0,1.0,55.00
2022-11-23 20:15:43.795,0.893973,0.36106944,0.50195754,0.9496136,0.8350619,0.26075745,0.18267143,0.7406324,0.7980421,0.22970045,0.26444063,0.7312511,0.2401718,-0.2125785,0.0072185127,0.4364132,-0.11337263,-0.5544809,-0.44008204,0.0321524,782.0879,801.8315,798.20514,790.14655,738.1685,-0.23931884765625,0.00836181640625,0.987548828125,6.213226318359375,2.056121826171875,-0.22430419921875,1,1.0,1.0,1.0,1.0,55.00
2022-11-23 20:15:43.796,0.893973,0.36106944,0.50195754,0.9496136,0.8350619,0.26075745,0.18267143,0.7406324,0.7980421,0.22970045,0.26444063,0.7312511,0.2401718,-0.2125785,0.0072185127,0.4364132,-0.11337263,-0.5544809,-0.44008204,0.0321524,822.7839,804.2491,800.2198,819.9634,920.293,-0.23931884765625,0.00836181640625,0.987548828125,6.213226318359375,2.056121826171875,-0.22430419921875,1,1.0,1.0,1.0,1.0,55.00
2022-11-23 20:15:43.796,0.893973,0.36106944,0.50195754,0.9496136,0.8350619,0.26075745,0.18267143,0.7406324,0.7980421,0.22970045,0.26444063,0.7312511,0.2401718,-0.2125785,0.0072185127,0.4364132,-0.11337263,-0.5544809,-0.44008204,0.0321524,827.2161,804.2491,800.2198,819.5604,958.1685,-0.23931884765625,0.00836181640625,0.987548828125,6.213226318359375,2.056121826171875,-0.22430419921875,1,1.0,1.0,1.0,1.0,55.00
2022-11-23 20:15:43.796,0.893973,0.36106944,0.50195754,0.9496136,0.8350619,0.26075745,0.18267143,0.7406324,0.7980421,0.22970045,0.26444063,0.7312511,0.2401718,-0.2125785,0.0072185127,0.4364132,-0.11337263,-0.5544809,-0.44008204,0.0321524,780.87915,801.02563,796.99634,787.326,999.2674,-0.23931884765625,0.00836181640625,0.987548828125,6.213226318359375,2.056121826171875,-0.22430419921875,1,1.0,1.0,1.0,1.0,55.00
2022-11-23 20:15:43.796,0.893973,0.36106944,0.50195754,0.9496136,0.8350619,0.26075745,0.18267143,0.7406324,0.7980421,0.22970045,0.26444063,0.7312511,0.2401718,-0.2125785,0.0072185127,0.4364132,-0.11337263,-0.5544809,-0.44008204,0.0321524,767.5824,798.20514,797.3993,785.7143,1037.1428,-0.23931884765625,0.00836181640625,0.987548828125,6.213226318359375,2.056121826171875,-0.22430419921875,1,1.0,1.0,1.0,1.0,55.00
2022-11-23 20:15:43.797,0.893973,0.36106944,0.50195754,0.9496136,0.8350619,0.26075745,0.18267143,0.7406324,0.7980421,0.22970045,0.26444063,0.7312511,0.2401718,-0.2125785,0.0072185127,0.4364132,-0.11337263,-0.5544809,-0.44008204,0.0321524,818.3516,800.6227,799.81683,819.9634,908.20514,-0.23931884765625,0.00836181640625,0.987548828125,6.213226318359375,2.056121826171875,-0.22430419921875,1,1.0,1.0,1.0,1.0,55.00
2022-11-23 20:15:43.797,0.893973,0.36106944,0.50195754,0.9496136,0.8350619,0.26075745,0.18267143,0.7406324,0.7980421,0.22970045,0.26444063,0.7312511,0.2401718,-0.2125785,0.0072185127,0.4364132,-0.11337263,-0.5544809,-0.44008204,0.0321524,839.707,803.0403,797.8022,821.978,838.0952,-0.23931884765625,0.00836181640625,0.987548828125,6.213226318359375,2.056121826171875,-0.22430419921875,1,1.0,1.0,1.0,1.0,55.00
2022-11-23 20:15:43.797,0.893973,0.36106944,0.50195754,0.9496136,0.8350619,0.26075745,0.18267143,0.7406324,0.7980421,0.22970045,0.26444063,0.7312511,0.2401718,-0.2125785,0.0072185127,0.4364132,-0.11337263,-0.5544809,-0.44008204,0.0321524,796.99634,807.8755,801.8315,792.1612,724.0659,-0.23931884765625,0.00836181640625,0.987548828125,6.213226318359375,2.056121826171875,-0.22430419921875,1,1.0,1.0,1.0,1.0,55.00
2022-11-23 20:15:43.850,0.893973,0.36106944,0.50195754,0.9496136,0.8350619,0.26075745,0.18267143,0.7406324,0.7980421,0.22970045,0.26444063,0.7312511,0.2401718,-0.2125785,0.0072185127,0.4364132,-0.11337263,-0.5544809,-0.44008204,0.0321524,775.64105,809.4872,803.44324,783.69965,632.6007,-0.20916748046875,0.0111083984375,1.0001220703125,5.263671875,-0.37384033203125,-1.338348388671875,1,1.0,1.0,1.0,1.0,55.00
2022-11-23 20:15:43.850,0.893973,0.36106944,0.50195754,0.9496136,0.8350619,0.26075745,0.18267143,0.7406324,0.7980421,0.22970045,0.26444063,0.7312511,0.2401718,-0.2125785,0.0072185127,0.4364132,-0.11337263,-0.5544809,-0.44008204,0.0321524,820.3663,809.4872,801.02563,807.8755,714.7985,-0.20916748046875,0.0111083984375,1.0001220703125,5.263671875,-0.37384033203125,-1.338348388671875,1,1.0,1.0,1.0,1.0,55.00
2022-11-23 20:15:43.851,0.893973,0.36106944,0.50195754,0.9496136,0.8350619,0.26075745,0.18267143,0.7406324,0.7980421,0.22970045,0.26444063,0.7312511,0.2401718,-0.2125785,0.0072185127,0.4364132,-0.11337263,-0.5544809,-0.44008204,0.0321524,854.61536,810.293,804.2491,830.84247,840.9158,-0.20916748046875,0.0111083984375,1.0001220703125,5.263671875,-0.37384033203125,-1.338348388671875,1,1.0,1.0,1.0,1.0,55.00
2022-11-23 20:15:43.851,0.893973,0.36106944,0.50195754,0.9496136,0.8350619,0.26075745,0.18267143,0.7406324,0.7980421,0.22970045,0.26444063,0.7312511,0.2401718,-0.2125785,0.0072185127,0.4364132,-0.11337263,-0.5544809,-0.44008204,0.0321524,823.5897,807.8755,803.0403,814.7253,823.5897,-0.20916748046875,0.0111083984375,1.0001220703125,5.263671875,-0.37384033203125,-1.338348388671875,1,1.0,1.0,1.0,1.0,55.00
2022-11-23 20:15:43.851,0.893973,0.36106944,0.50195754,0.9496136,0.8350619,0.26075745,0.18267143,0.7406324,0.7980421,0.22970045,0.26444063,0.7312511,0.2401718,-0.2125785,0.0072185127,0.4364132,-0.11337263,-0.5544809,-0.44008204,0.0321524,780.4762,804.2491,797.3993,787.72894,668.86444,-0.20916748046875,0.0111083984375,1.0001220703125,5.263671875,-0.37384033203125,-1.338348388671875,1,1.0,1.0,1.0,1.0,55.00
2022-11-23 20:15:43.852,0.893973,0.36106944,0.50195754,0.9496136,0.8350619,0.26075745,0.18267143,0.7406324,0.7980421,0.22970045,0.26444063,0.7312511,0.2401718,-0.2125785,0.0072185127,0.4364132,-0.11337263,-0.5544809,-0.44008204,0.0321524,804.2491,803.0403,799.81683,800.6227,641.8681,-0.20916748046875,0.0111083984375,1.0001220703125,5.263671875,-0.37384033203125,-1.338348388671875,1,1.0,1.0,1.0,1.0,55.00
2022-11-23 20:15:43.852,0.893973,0.36106944,0.50195754,0.9496136,0.8350619,0.26075745,0.18267143,0.7406324,0.7980421,0.22970045,0.26444063,0.7312511,0.2401718,-0.2125785,0.0072185127,0.4364132,-0.11337263,-0.5544809,-0.44008204,0.0321524,848.5714,809.0842,805.05493,828.022,931.1722,-0.20916748046875,0.0111083984375,1.0001220703125,5.263671875,-0.37384033203125,-1.338348388671875,1,1.0,1.0,1.0,1.0,55.00
2022-11-23 20:15:43.852,0.893973,0.36106944,0.50195754,0.9496136,0.8350619,0.26075745,0.18267143,0.7406324,0.7980421,0.22970045,0.26444063,0.7312511,0.2401718,-0.2125785,0.0072185127,0.4364132,-0.11337263,-0.5544809,-0.44008204,0.0321524,822.381,811.0989,802.6374,815.12823,1224.9084,-0.20916748046875,0.0111083984375,1.0001220703125,5.263671875,-0.37384033203125,-1.338348388671875,1,1.0,1.0,1.0,1.0,55.00
2022-11-23 20:15:43.852,0.893973,0.36106944,0.50195754,0.9496136,0.8350619,0.26075745,0.18267143,0.7406324,0.7980421,0.22970045,0.26444063,0.7312511,0.2401718,-0.2125785,0.0072185127,0.4364132,-0.11337263,-0.5544809,-0.44008204,0.0321524,779.67035,811.0989,803.0403,784.90845,945.2747,-0.20916748046875,0.0111083984375,1.0001220703125,5.263671875,-0.37384033203125,-1.338348388671875,1,1.0,1.0,1.0,1.0,55.00
2022-11-23 20:15:43.853,0.893973,0.36106944,0.50195754,0.9496136,0.8350619,0.26075745,0.18267143,0.7406324,0.7980421,0.22970045,0.26444063,0.7312511,0.2401718,-0.2125785,0.0072185127,0.4364132,-0.11337263,-0.5544809,-0.44008204,0.0321524,790.14655,812.71063,802.23444,793.7729,624.5421,-0.20916748046875,0.0111083984375,1.0001220703125,5.263671875,-0.37384033203125,-1.338348388671875,1,1.0,1.0,1.0,1.0,55.00
2022-11-23 20:15:43.853,0.893973,0.36106944,0.50195754,0.9496136,0.8350619,0.26075745,0.18267143,0.7406324,0.7980421,0.22970045,0.26444063,0.7312511,0.2401718,-0.2125785,0.0072185127,0.4364132,-0.11337263,-0.5544809,-0.44008204,0.0321524,835.6777,813.1135,796.5934,824.3956,817.9487,-0.20916748046875,0.0111083984375,1.0001220703125,5.263671875,-0.37384033203125,-1.338348388671875,1,1.0,1.0,1.0,1.0,55.00
2022-11-23 20:15:43.853,0.8966349,0.65720415,0.5273251,0.95984656,0.8653972,0.4382269,0.2096098,0.7660134,0.7980421,0.27797627,0.25931805,0.7193179,0.25658664,-0.21496426,0.015103378,0.45529163,-0.10678141,-0.5666025,-0.4224866,0.049100153,844.1392,815.9341,796.5934,821.5751,908.60803,-0.20916748046875,0.0111083984375,1.0001220703125,5.263671875,-0.37384033203125,-1.338348388671875,1,1.0,1.0,1.0,1.0,55.00
2022-11-23 20:15:43.911,0.8966349,0.65720415,0.5273251,0.95984656,0.8653972,0.4382269,0.2096098,0.7660134,0.7980421,0.27797627,0.25931805,0.7193179,0.25658664,-0.21496426,0.015103378,0.45529163,-0.10678141,-0.5666025,-0.4224866,0.049100153,785.7143,817.9487,797.8022,788.5348,759.92676,-0.20916748046875,0.0111083984375,1.0001220703125,5.263671875,-0.37384033203125,-1.338348388671875,1,1.0,1.0,1.0,1.0,55.00
2022-11-23 20:15:43.912,0.8966349,0.65720415,0.5273251,0.95984656,0.8653972,0.4382269,0.2096098,0.7660134,0.7980421,0.27797627,0.25931805,0.7193179,0.25658664,-0.21496426,0.015103378,0.45529163,-0.10678141,-0.5666025,-0.4224866,0.049100153,770.40295,813.1135,796.5934,783.2967,745.0183,-0.20916748046875,0.0111083984375,1.0001220703125,5.263671875,-0.37384033203125,-1.338348388671875,1,1.0,1.0,1.0,1.0,55.00
2022-11-23 20:15:43.912,0.8966349,0.65720415,0.5273251,0.95984656,0.8653972,0.4382269,0.2096098,0.7660134,0.7980421,0.27797627,0.25931805,0.7193179,0.25658664,-0.21496426,0.015103378,0.45529163,-0.10678141,-0.5666025,-0.4224866,0.049100153,824.3956,809.4872,798.20514,815.9341,908.60803,-0.20916748046875,0.0111083984375,1.0001220703125,5.263671875,-0.37384033203125,-1.338348388671875,1,1.0,1.0,1.0,1.0,55.00
2022-11-23 20:15:43.912,0.8966349,0.65720415,0.5273251,0.95984656,0.8653972,0.4382269,0.2096098,0.7660134,0.7980421,0.27797627,0.25931805,0.7193179,0.25658664,-0.21496426,0.015103378,0.45529163,-0.10678141,-0.5666025,-0.4224866,0.049100153,847.3626,814.3223,804.2491,826.4103,925.12823,-0.20916748046875,0.0111083984375,1.0001220703125,5.263671875,-0.37384033203125,-1.338348388671875,1,1.0,1.0,1.0,1.0,55.00
2022-11-23 20:15:43.913,0.8966349,0.65720415,0.5273251,0.95984656,0.8653972,0.4382269,0.2096098,0.7660134,0.7980421,0.27797627,0.25931805,0.7193179,0.25658664,-0.21496426,0.015103378,0.45529163,-0.10678141,-0.5666025,-0.4224866,0.049100153,802.23444,810.696,800.2198,792.1612,722.8571,-0.20916748046875,0.0111083984375,1.0001220703125,5.263671875,-0.37384033203125,-1.338348388671875,1,1.0,1.0,1.0,1.0,55.00
2022-11-23 20:15:43.913,0.8966349,0.65720415,0.5273251,0.95984656,0.8653972,0.4382269,0.2096098,0.7660134,0.7980421,0.27797627,0.25931805,0.7193179,0.25658664,-0.21496426,0.015103378,0.45529163,-0.10678141,-0.5666025,-0.4224866,0.049100153,768.3883,805.05493,794.17584,770.80585,635.0183,-0.20916748046875,0.0111083984375,1.0001220703125,5.263671875,-0.37384033203125,-1.338348388671875,1,1.0,1.0,1.0,1.0,55.00
2022-11-23 20:15:43.913,0.8966349,0.65720415,0.5273251,0.95984656,0.8653972,0.4382269,0.2096098,0.7660134,0.7980421,0.27797627,0.25931805,0.7193179,0.25658664,-0.21496426,0.015103378,0.45529163,-0.10678141,-0.5666025,-0.4224866,0.049100153,804.65204,808.68134,801.4286,801.8315,918.2784,-0.20916748046875,0.0111083984375,1.0001220703125,5.263671875,-0.37384033203125,-1.338348388671875,1,1.0,1.0,1.0,1.0,55.00
2022-11-23 20:15:43.913,0.8966349,0.65720415,0.5273251,0.95984656,0.8653972,0.4382269,0.2096098,0.7660134,0.7980421,0.27797627,0.25931805,0.7193179,0.25658664,-0.21496426,0.015103378,0.45529163,-0.10678141,-0.5666025,-0.4224866,0.049100153,843.3333,813.5165,800.2198,830.4396,1180.989,-0.20916748046875,0.0111083984375,1.0001220703125,5.263671875,-0.37384033203125,-1.338348388671875,1,1.0,1.0,1.0,1.0,55.00
2022-11-23 20:15:43.914,0.8966349,0.65720415,0.5273251,0.95984656,0.8653972,0.4382269,0.2096098,0.7660134,0.7980421,0.27797627,0.25931805,0.7193179,0.25658664,-0.21496426,0.015103378,0.45529163,-0.10678141,-0.5666025,-0.4224866,0.049100153,810.293,809.4872,792.96704,807.8755,881.6117,-0.20916748046875,0.0111083984375,1.0001220703125,5.263671875,-0.37384033203125,-1.338348388671875,1,1.0,1.0,1.0,1.0,55.00
2022-11-23 20:15:43.914,0.8966349,0.65720415,0.5273251,0.95984656,0.8653972,0.4382269,0.2096098,0.7660134,0.7980421,0.27797627,0.25931805,0.7193179,0.25658664,-0.21496426,0.015103378,0.45529163,-0.10678141,-0.5666025,-0.4224866,0.049100153,767.98535,809.89014,794.57874,774.0293,562.0879,-0.20916748046875,0.0111083984375,1.0001220703125,5.263671875,-0.37384033203125,-1.338348388671875,1,1.0,1.0,1.0,1.0,55.00
2022-11-23 20:15:43.914,0.8966349,0.65720415,0.5273251,0.95984656,0.8653972,0.4382269,0.2096098,0.7660134,0.7980421,0.27797627,0.25931805,0.7193179,0.25658664,-0.21496426,0.015103378,0.45529163,-0.10678141,-0.5666025,-0.4224866,0.049100153,792.1612,812.71063,799.41394,786.9231,604.7985,-0.20916748046875,0.0111083984375,1.0001220703125,5.263671875,-0.37384033203125,-1.338348388671875,1,1.0,1.0,1.0,1.0,55.00
2022-11-23 20:15:43.915,0.8966349,0.65720415,0.5273251,0.95984656,0.8653972,0.4382269,0.2096098,0.7660134,0.7980421,0.27797627,0.25931805,0.7193179,0.25658664,-0.21496426,0.015103378,0.45529163,-0.10678141,-0.5666025,-0.4224866,0.049100153,840.9158,813.91943,804.2491,817.5458,737.76556,-0.20916748046875,0.0111083984375,1.0001220703125,5.263671875,-0.37384033203125,-1.338348388671875,1,1.0,1.0,1.0,1.0,55.00
2022-11-23 20:15:43.938,0.8966349,0.65720415,0.5273251,0.95984656,0.8653972,0.4382269,0.2096098,0.7660134,0.7980421,0.27797627,0.25931805,0.7193179,0.25658664,-0.21496426,0.015103378,0.45529163,-0.10678141,-0.5666025,-0.4224866,0.049100153,823.5897,812.71063,803.8461,806.26373,710.3663,-0.2149658203125,0.002685546875,0.9942626953125,3.66363525390625,-2.2430419921875,1.502838134765625,1,1.0,1.0,1.0,1.0,55.00
2022-11-23 20:15:43.938,0.8966349,0.65720415,0.5273251,0.95984656,0.8653972,0.4382269,0.2096098,0.7660134,0.7980421,0.27797627,0.25931805,0.7193179,0.25658664,-0.21496426,0.015103378,0.45529163,-0.10678141,-0.5666025,-0.4224866,0.049100153,763.5531,806.6667,802.23444,775.2381,592.71063,-0.2149658203125,0.002685546875,0.9942626953125,3.66363525390625,-2.2430419921875,1.502838134765625,1,1.0,1.0,1.0,1.0,55.00
2022-11-23 20:15:43.939,0.8966349,0.65720415,0.5273251,0.95984656,0.8653972,0.4382269,0.2096098,0.7660134,0.7980421,0.27797627,0.25931805,0.7193179,0.25658664,-0.21496426,0.015103378,0.45529163,-0.10678141,-0.5666025,-0.4224866,0.049100153,771.6117,809.89014,804.65204,786.52014,615.6777,-0.2149658203125,0.002685546875,0.9942626953125,3.66363525390625,-2.2430419921875,1.502838134765625,1,1.0,1.0,1.0,1.0,55.00
2022-11-23 20:15:43.939,0.8966349,0.65720415,0.5273251,0.95984656,0.8653972,0.4382269,0.2096098,0.7660134,0.7980421,0.27797627,0.25931805,0.7193179,0.25658664,-0.21496426,0.015103378,0.45529163,-0.10678141,-0.5666025,-0.4224866,0.049100153,823.5897,806.6667,806.6667,821.5751,800.2198,-0.2149658203125,0.002685546875,0.9942626953125,3.66363525390625,-2.2430419921875,1.502838134765625,1,1.0,1.0,1.0,1.0,55.00
2022-11-23 20:15:43.939,0.8966349,0.65720415,0.5273251,0.95984656,0.8653972,0.4382269,0.2096098,0.7660134,0.7980421,0.27797627,0.25931805,0.7193179,0.25658664,-0.21496426,0.015103378,0.45529163,-0.10678141,-0.5666025,-0.4224866,0.049100153,824.7985,804.65204,803.44324,817.9487,864.2857,-0.2149658203125,0.002685546875,0.9942626953125,3.66363525390625,-2.2430419921875,1.502838134765625,1,1.0,1.0,1.0,1.0,55.00
2022-11-23 20:15:43.939,0.8966349,0.65720415,0.5273251,0.95984656,0.8653972,0.4382269,0.2096098,0.7660134,0.7980421,0.27797627,0.25931805,0.7193179,0.25658664,-0.21496426,0.015103378,0.45529163,-0.10678141,-0.5666025,-0.4224866,0.049100153,776.04395,810.293,807.8755,785.31134,806.6667,-0.2149658203125,0.002685546875,0.9942626953125,3.66363525390625,-2.2430419921875,1.502838134765625,1,1.0,1.0,1.0,1.0,55.00
2022-11-23 20:15:43.940,0.8966349,0.65720415,0.5273251,0.95984656,0.8653972,0.4382269,0.2096098,0.7660134,0.7980421,0.27797627,0.25931805,0.7193179,0.25658664,-0.21496426,0.015103378,0.45529163,-0.10678141,-0.5666025,-0.4224866,0.049100153,753.8828,806.26373,807.47253,776.8498,877.98535,-0.2149658203125,0.002685546875,0.9942626953125,3.66363525390625,-2.2430419921875,1.502838134765625,1,1.0,1.0,1.0,1.0,55.00
2022-11-23 20:15:43.940,0.8966349,0.65720415,0.5273251,0.95984656,0.8653972,0.4382269,0.2096098,0.7660134,0.7980421,0.27797627,0.25931805,0.7193179,0.25658664,-0.21496426,0.015103378,0.45529163,-0.10678141,-0.5666025,-0.4224866,0.049100153,801.4286,803.0403,806.6667,808.2784,932.7839,-0.2149658203125,0.002685546875,0.9942626953125,3.66363525390625,-2.2430419921875,1.502838134765625,1,1.0,1.0,1.0,1.0,55.00
2022-11-23 20:15:43.940,0.8966349,0.65720415,0.5273251,0.95984656,0.8653972,0.4382269,0.2096098,0.7660134,0.7980421,0.27797627,0.25931805,0.7193179,0.25658664,-0.21496426,0.015103378,0.45529163,-0.10678141,-0.5666025,-0.4224866,0.049100153,838.9011,809.4872,802.23444,821.978,869.92676,-0.2149658203125,0.002685546875,0.9942626953125,3.66363525390625,-2.2430419921875,1.502838134765625,1,1.0,1.0,1.0,1.0,55.00
2022-11-23 20:15:43.940,0.8966349,0.65720415,0.5273251,0.95984656,0.8653972,0.4382269,0.2096098,0.7660134,0.7980421,0.27797627,0.25931805,0.7193179,0.25658664,-0.21496426,0.015103378,0.45529163,-0.10678141,-0.5666025,-0.4224866,0.049100153,799.41394,807.8755,798.20514,784.5055,782.0879,-0.2149658203125,0.002685546875,0.9942626953125,3.66363525390625,-2.2430419921875,1.502838134765625,1,1.0,1.0,1.0,1.0,55.00
2022-11-23 20:15:43.940,0.8966349,0.65720415,0.5273251,0.95984656,0.8653972,0.4382269,0.2096098,0.7660134,0.7980421,0.27797627,0.25931805,0.7193179,0.25658664,-0.21496426,0.015103378,0.45529163,-0.10678141,-0.5666025,-0.4224866,0.049100153,761.13556,802.6374,799.41394,765.9707,783.69965,-0.2149658203125,0.002685546875,0.9942626953125,3.66363525390625,-2.2430419921875,1.502838134765625,1,1.0,1.0,1.0,1.0,55.00
2022-11-23 20:15:43.941,0.8966349,0.65720415,0.5273251,0.95984656,0.8653972,0.4382269,0.2096098,0.7660134,0.7980421,0.27797627,0.25931805,0.7193179,0.25658664,-0.21496426,0.015103378,0.45529163,-0.10678141,-0.5666025,-0.4224866,0.049100153,791.3553,803.44324,803.0403,799.81683,910.6227,-0.2149658203125,0.002685546875,0.9942626953125,3.66363525390625,-2.2430419921875,1.502838134765625,1,1.0,1.0,1.0,1.0,55.00
2022-11-23 20:15:43.993,0.8966349,0.65720415,0.5273251,0.95984656,0.8653972,0.4382269,0.2096098,0.7660134,0.7980421,0.27797627,0.25931805,0.7193179,0.25658664,-0.21496426,0.015103378,0.45529163,-0.10678141,-0.5666025,-0.4224866,0.049100153,825.6044,803.0403,803.0403,821.5751,1021.4286,-0.20611572265625,0.00396728515625,0.99798583984375,4.3365478515625,-3.536529541015625,0.336456298828125,1,1.0,1.0,1.0,1.0,55.00
2022-11-23 20:15:43.994,0.9101671,0.9056364,0.5542223,0.9819049,0.895436,0.58876365,0.23855825,0.79455805,0.7980421,0.30882427,0.25904182,0.71458244,0.27516633,-0.21371768,0.019999007,0.47418347,-0.09978077,-0.5679125,-0.4031465,0.06926836,802.23444,801.4286,804.65204,796.5934,936.0073,-0.20611572265625,0.00396728515625,0.99798583984375,4.3365478515625,-3.536529541015625,0.336456298828125,1,1.0,1.0,1.0,1.0,55.00
2022-11-23 20:15:43.995,0.9101671,0.9056364,0.5542223,0.9819049,0.895436,0.58876365,0.23855825,0.79455805,0.7980421,0.30882427,0.25904182,0.71458244,0.27516633,-0.21371768,0.019999007,0.47418347,-0.09978077,-0.5679125,-0.4031465,0.06926836,759.5238,797.8022,803.8461,778.0586,684.57874,-0.20611572265625,0.00396728515625,0.99798583984375,4.3365478515625,-3.536529541015625,0.336456298828125,1,1.0,1.0,1.0,1.0,55.00
2022-11-23 20:15:43.996,0.9101671,0.9056364,0.5542223,0.9819049,0.895436,0.58876365,0.23855825,0.79455805,0.7980421,0.30882427,0.25904182,0.71458244,0.27516633,-0.21371768,0.019999007,0.47418347,-0.09978077,-0.5679125,-0.4031465,0.06926836,774.43225,797.3993,797.3993,794.57874,630.18317,-0.20611572265625,0.00396728515625,0.99798583984375,4.3365478515625,-3.536529541015625,0.336456298828125,1,1.0,1.0,1.0,1.0,55.00
2022-11-23 20:15:43.996,0.9101671,0.9056364,0.5542223,0.9819049,0.895436,0.58876365,0.23855825,0.79455805,0.7980421,0.30882427,0.25904182,0.71458244,0.27516633,-0.21371768,0.019999007,0.47418347,-0.09978077,-0.5679125,-0.4031465,0.06926836,819.9634,796.99634,796.99634,815.12823,769.19415,-0.20611572265625,0.00396728515625,0.99798583984375,4.3365478515625,-3.536529541015625,0.336456298828125,1,1.0,1.0,1.0,1.0,55.00
2022-11-23 20:15:43.996,0.9101671,0.9056364,0.5542223,0.9819049,0.895436,0.58876365,0.23855825,0.79455805,0.7980421,0.30882427,0.25904182,0.71458244,0.27516633,-0.21371768,0.019999007,0.47418347,-0.09978077,-0.5679125,-0.4031465,0.06926836,814.7253,796.5934,799.41394,805.8608,957.3626,-0.20611572265625,0.00396728515625,0.99798583984375,4.3365478515625,-3.536529541015625,0.336456298828125,1,1.0,1.0,1.0,1.0,55.00
2022-11-23 20:15:43.997,0.9101671,0.9056364,0.5542223,0.9819049,0.895436,0.58876365,0.23855825,0.79455805,0.7980421,0.30882427,0.25904182,0.71458244,0.27516633,-0.21371768,0.019999007,0.47418347,-0.09978077,-0.5679125,-0.4031465,0.06926836,776.4469,801.8315,804.2491,774.0293,812.71063,-0.20611572265625,0.00396728515625,0.99798583984375,4.3365478515625,-3.536529541015625,0.336456298828125,1,1.0,1.0,1.0,1.0,55.00
2022-11-23 20:15:43.997,0.9101671,0.9056364,0.5542223,0.9819049,0.895436,0.58876365,0.23855825,0.79455805,0.7980421,0.30882427,0.25904182,0.71458244,0.27516633,-0.21371768,0.019999007,0.47418347,-0.09978077,-0.5679125,-0.4031465,0.06926836,775.64105,801.4286,803.44324,779.67035,622.1245,-0.20611572265625,0.00396728515625,0.99798583984375,4.3365478515625,-3.536529541015625,0.336456298828125,1,1.0,1.0,1.0,1.0,55.00
2022-11-23 20:15:43.997,0.9101671,0.9056364,0.5542223,0.9819049,0.895436,0.58876365,0.23855825,0.79455805,0.7980421,0.30882427,0.25904182,0.71458244,0.27516633,-0.21371768,0.019999007,0.47418347,-0.09978077,-0.5679125,-0.4031465,0.06926836,821.5751,802.23444,797.8022,812.71063,737.76556,-0.20611572265625,0.00396728515625,0.99798583984375,4.3365478515625,-3.536529541015625,0.336456298828125,1,1.0,1.0,1.0,1.0,55.00
2022-11-23 20:15:43.998,0.9101671,0.9056364,0.5542223,0.9819049,0.895436,0.58876365,0.23855825,0.79455805,0.7980421,0.30882427,0.25904182,0.71458244,0.27516633,-0.21371768,0.019999007,0.47418347,-0.09978077,-0.5679125,-0.4031465,0.06926836,836.4835,803.8461,798.60803,824.3956,1032.3077,-0.20611572265625,0.00396728515625,0.99798583984375,4.3365478515625,-3.536529541015625,0.336456298828125,1,1.0,1.0,1.0,1.0,55.00
2022-11-23 20:15:43.998,0.9101671,0.9056364,0.5542223,0.9819049,0.895436,0.58876365,0.23855825,0.79455805,0.7980421,0.30882427,0.25904182,0.71458244,0.27516633,-0.21371768,0.019999007,0.47418347,-0.09978077,-0.5679125,-0.4031465,0.06926836,788.5348,800.2198,800.2198,800.2198,1016.5934,-0.20611572265625,0.00396728515625,0.99798583984375,4.3365478515625,-3.536529541015625,0.336456298828125,1,1.0,1.0,1.0,1.0,55.00
2022-11-23 20:15:43.998,0.9101671,0.9056364,0.5542223,0.9819049,0.895436,0.58876365,0.23855825,0.79455805,0.7980421,0.30882427,0.25904182,0.71458244,0.27516633,-0.21371768,0.019999007,0.47418347,-0.09978077,-0.5679125,-0.4031465,0.06926836,764.7619,800.2198,803.44324,780.87915,636.2271,-0.20611572265625,0.00396728515625,0.99798583984375,4.3365478515625,-3.536529541015625,0.336456298828125,1,1.0,1.0,1.0,1.0,55.00
2022-11-23 20:15:44.024,0.9101671,0.9056364,0.5542223,0.9819049,0.895436,0.58876365,0.23855825,0.79455805,0.7980421,0.30882427,0.25904182,0.71458244,0.27516633,-0.21371768,0.019999007,0.47418347,-0.09978077,-0.5679125,-0.4031465,0.06926836,810.293,799.011,803.44324,809.89014,702.71063,-0.19537353515625,0.00836181640625,1.00439453125,3.529052734375,-2.773895263671875,0.059814453125,1,1.0,1.0,1.0,1.0,55.00
2022-11-23 20:15:44.025,0.9101671,0.9056364,0.5542223,0.9819049,0.895436,0.58876365,0.23855825,0.79455805,0.7980421,0.30882427,0.25904182,0.71458244,0.27516633,-0.21371768,0.019999007,0.47418347,-0.09978077,-0.5679125,-0.4031465,0.06926836,841.31866,799.41394,801.4286,816.337,878.7912,-0.19537353515625,0.00836181640625,1.00439453125,3.529052734375,-2.773895263671875,0.059814453125,1,1.0,1.0,1.0,1.0,55.00
2022-11-23 20:15:44.025,0.9101671,0.9056364,0.5542223,0.9819049,0.895436,0.58876365,0.23855825,0.79455805,0.7980421,0.30882427,0.25904182,0.71458244,0.27516633,-0.21371768,0.019999007,0.47418347,-0.09978077,-0.5679125,-0.4031465,0.06926836,800.2198,803.44324,803.0403,780.4762,774.0293,-0.19537353515625,0.00836181640625,1.00439453125,3.529052734375,-2.773895263671875,0.059814453125,1,1.0,1.0,1.0,1.0,55.00
2022-11-23 20:15:44.025,0.9101671,0.9056364,0.5542223,0.9819049,0.895436,0.58876365,0.23855825,0.79455805,0.7980421,0.30882427,0.25904182,0.71458244,0.27516633,-0.21371768,0.019999007,0.47418347,-0.09978077,-0.5679125,-0.4031465,0.06926836,771.6117,804.2491,800.2198,772.01465,629.7802,-0.19537353515625,0.00836181640625,1.00439453125,3.529052734375,-2.773895263671875,0.059814453125,1,1.0,1.0,1.0,1.0,55.00
2022-11-23 20:15:44.025,0.9101671,0.9056364,0.5542223,0.9819049,0.895436,0.58876365,0.23855825,0.79455805,0.7980421,0.30882427,0.25904182,0.71458244,0.27516633,-0.21371768,0.019999007,0.47418347,-0.09978077,-0.5679125,-0.4031465,0.06926836,801.4286,799.011,799.41394,805.8608,724.0659,-0.19537353515625,0.00836181640625,1.00439453125,3.529052734375,-2.773895263671875,0.059814453125,1,1.0,1.0,1.0,1.0,55.00
2022-11-23 20:15:44.026,0.9101671,0.9056364,0.5542223,0.9819049,0.895436,0.58876365,0.23855825,0.79455805,0.7980421,0.30882427,0.25904182,0.71458244,0.27516633,-0.21371768,0.019999007,0.47418347,-0.09978077,-0.5679125,-0.4031465,0.06926836,834.4689,796.1905,796.1905,826.0073,887.6557,-0.19537353515625,0.00836181640625,1.00439453125,3.529052734375,-2.773895263671875,0.059814453125,1,1.0,1.0,1.0,1.0,55.00
2022-11-23 20:15:44.026,0.9101671,0.9056364,0.5542223,0.9819049,0.895436,0.58876365,0.23855825,0.79455805,0.7980421,0.30882427,0.25904182,0.71458244,0.27516633,-0.21371768,0.019999007,0.47418347,-0.09978077,-0.5679125,-0.4031465,0.06926836,818.7546,800.2198,800.6227,806.6667,855.0183,-0.19537353515625,0.00836181640625,1.00439453125,3.529052734375,-2.773895263671875,0.059814453125,1,1.0,1.0,1.0,1.0,55.00
2022-11-23 20:15:44.026,0.9101671,0.9056364,0.5542223,0.9819049,0.895436,0.58876365,0.23855825,0.79455805,0.7980421,0.30882427,0.25904182,0.71458244,0.27516633,-0.21371768,0.019999007,0.47418347,-0.09978077,-0.5679125,-0.4031465,0.06926836,772.8205,798.20514,801.4286,778.86444,678.93774,-0.19537353515625,0.00836181640625,1.00439453125,3.529052734375,-2.773895263671875,0.059814453125,1,1.0,1.0,1.0,1.0,55.00
2022-11-23 20:15:44.026,0.9101671,0.9056364,0.5542223,0.9819049,0.895436,0.58876365,0.23855825,0.79455805,0.7980421,0.30882427,0.25904182,0.71458244,0.27516633,-0.21371768,0.019999007,0.47418347,-0.09978077,-0.5679125,-0.4031465,0.06926836,779.67035,794.57874,795.38464,792.5641,686.99634,-0.19537353515625,0.00836181640625,1.00439453125,3.529052734375,-2.773895263671875,0.059814453125,1,1.0,1.0,1.0,1.0,55.00
2022-11-23 20:15:44.027,0.9101671,0.9056364,0.5542223,0.9819049,0.895436,0.58876365,0.23855825,0.79455805,0.7980421,0.30882427,0.25904182,0.71458244,0.27516633,-0.21371768,0.019999007,0.47418347,-0.09978077,-0.5679125,-0.4031465,0.06926836,830.84247,792.96704,799.011,826.0073,1030.6959,-0.19537353515625,0.00836181640625,1.00439453125,3.529052734375,-2.773895263671875,0.059814453125,1,1.0,1.0,1.0,1.0,55.00
2022-11-23 20:15:44.027,0.9101671,0.9056364,0.5542223,0.9819049,0.895436,0.58876365,0.23855825,0.79455805,0.7980421,0.30882427,0.25904182,0.71458244,0.27516633,-0.21371768,0.019999007,0.47418347,-0.09978077,-0.5679125,-0.4031465,0.06926836,822.7839,792.96704,799.81683,811.0989,996.8498,-0.19537353515625,0.00836181640625,1.00439453125,3.529052734375,-2.773895263671875,0.059814453125,1,1.0,1.0,1.0,1.0,55.00
2022-11-23 20:15:44.027,0.9101671,0.9056364,0.5542223,0.9819049,0.895436,0.58876365,0.23855825,0.79455805,0.7980421,0.30882427,0.25904182,0.71458244,0.27516633,-0.21371768,0.019999007,0.47418347,-0.09978077,-0.5679125,-0.4031465,0.06926836,763.95605,796.99634,799.011,770.80585,639.45056,-0.19537353515625,0.00836181640625,1.00439453125,3.529052734375,-2.773895263671875,0.059814453125,1,1.0,1.0,1.0,1.0,55.00
2022-11-23 20:15:44.076,0.9101671,0.9056364,0.5542223,0.9819049,0.895436,0.58876365,0.23855825,0.79455805,0.7980421,0.30882427,0.25904182,0.71458244,0.27516633,-0.21371768,0.019999007,0.47418347,-0.09978077,-0.5679125,-0.4031465,0.06926836,761.53845,800.6227,800.6227,772.01465,652.74725,-0.20513916015625,0.003662109375,1.00042724609375,2.564544677734375,-1.846771240234375,0.43365478515625,1,1.0,1.0,1.0,1.0,55.00
2022-11-23 20:15:44.077,0.9101671,0.9056364,0.5542223,0.9819049,0.895436,0.58876365,0.23855825,0.79455805,0.7980421,0.30882427,0.25904182,0.71458244,0.27516633,-0.21371768,0.019999007,0.47418347,-0.09978077,-0.5679125,-0.4031465,0.06926836,813.91943,805.8608,804.65204,818.7546,882.4176,-0.20513916015625,0.003662109375,1.00042724609375,2.564544677734375,-1.846771240234375,0.43365478515625,1,1.0,1.0,1.0,1.0,55.00
2022-11-23 20:15:44.077,0.9101671,0.9056364,0.5542223,0.9819049,0.895436,0.58876365,0.23855825,0.79455805,0.7980421,0.30882427,0.25904182,0.71458244,0.27516633,-0.21371768,0.019999007,0.47418347,-0.09978077,-0.5679125,-0.4031465,0.06926836,834.4689,808.2784,805.8608,826.0073,908.60803,-0.20513916015625,0.003662109375,1.00042724609375,2.564544677734375,-1.846771240234375,0.43365478515625,1,1.0,1.0,1.0,1.0,55.00
2022-11-23 20:15:44.077,0.9296789,1.0723499,0.5810423,1.0076898,0.9251463,0.68994915,0.26952118,0.82359874,0.7980421,0.33304158,0.25904182,0.7144623,0.29121226,-0.21282397,0.018538937,0.48884198,-0.09506822,-0.5566438,-0.38255405,0.09408311,784.5055,805.8608,803.44324,788.5348,729.304,-0.20513916015625,0.003662109375,1.00042724609375,2.564544677734375,-1.846771240234375,0.43365478515625,1,1.0,1.0,1.0,1.0,55.00
2022-11-23 20:15:44.079,0.9296789,1.0723499,0.5810423,1.0076898,0.9251463,0.68994915,0.26952118,0.82359874,0.7980421,0.33304158,0.25904182,0.7144623,0.29121226,-0.21282397,0.018538937,0.48884198,-0.09506822,-0.5566438,-0.38255405,0.09408311,759.5238,806.6667,808.2784,775.64105,615.6777,-0.20513916015625,0.003662109375,1.00042724609375,2.564544677734375,-1.846771240234375,0.43365478515625,1,1.0,1.0,1.0,1.0,55.00
2022-11-23 20:15:44.079,0.9296789,1.0723499,0.5810423,1.0076898,0.9251463,0.68994915,0.26952118,0.82359874,0.7980421,0.33304158,0.25904182,0.7144623,0.29121226,-0.21282397,0.018538937,0.48884198,-0.09506822,-0.5566438,-0.38255405,0.09408311,802.23444,807.47253,809.0842,805.4579,777.6557,-0.20513916015625,0.003662109375,1.00042724609375,2.564544677734375,-1.846771240234375,0.43365478515625,1,1.0,1.0,1.0,1.0,55.00
2022-11-23 20:15:44.079,0.9296789,1.0723499,0.5810423,1.0076898,0.9251463,0.68994915,0.26952118,0.82359874,0.7980421,0.33304158,0.25904182,0.7144623,0.29121226,-0.21282397,0.018538937,0.48884198,-0.09506822,-0.5566438,-0.38255405,0.09408311,829.2308,805.8608,800.6227,826.4103,923.1135,-0.20513916015625,0.003662109375,1.00042724609375,2.564544677734375,-1.846771240234375,0.43365478515625,1,1.0,1.0,1.0,1.0,55.00
2022-11-23 20:15:44.080,0.9296789,1.0723499,0.5810423,1.0076898,0.9251463,0.68994915,0.26952118,0.82359874,0.7980421,0.33304158,0.25904182,0.7144623,0.29121226,-0.21282397,0.018538937,0.48884198,-0.09506822,-0.5566438,-0.38255405,0.09408311,793.36993,804.65204,798.60803,800.6227,772.8205,-0.20513916015625,0.003662109375,1.00042724609375,2.564544677734375,-1.846771240234375,0.43365478515625,1,1.0,1.0,1.0,1.0,55.00
2022-11-23 20:15:44.080,0.9296789,1.0723499,0.5810423,1.0076898,0.9251463,0.68994915,0.26952118,0.82359874,0.7980421,0.33304158,0.25904182,0.7144623,0.29121226,-0.21282397,0.018538937,0.48884198,-0.09506822,-0.5566438,-0.38255405,0.09408311,757.1062,803.44324,802.6374,778.0586,764.7619,-0.20513916015625,0.003662109375,1.00042724609375,2.564544677734375,-1.846771240234375,0.43365478515625,1,1.0,1.0,1.0,1.0,55.00
2022-11-23 20:15:44.080,0.9296789,1.0723499,0.5810423,1.0076898,0.9251463,0.68994915,0.26952118,0.82359874,0.7980421,0.33304158,0.25904182,0.7144623,0.29121226,-0.21282397,0.018538937,0.48884198,-0.09506822,-0.5566438,-0.38255405,0.09408311,789.34064,803.0403,803.44324,803.0403,912.23444,-0.20513916015625,0.003662109375,1.00042724609375,2.564544677734375,-1.846771240234375,0.43365478515625,1,1.0,1.0,1.0,1.0,55.00
2022-11-23 20:15:44.080,0.9296789,1.0723499,0.5810423,1.0076898,0.9251463,0.68994915,0.26952118,0.82359874,0.7980421,0.33304158,0.25904182,0.7144623,0.29121226,-0.21282397,0.018538937,0.48884198,-0.09506822,-0.5566438,-0.38255405,0.09408311,830.0366,805.05493,806.6667,830.84247,877.98535,-0.20513916015625,0.003662109375,1.00042724609375,2.564544677734375,-1.846771240234375,0.43365478515625,1,1.0,1.0,1.0,1.0,55.00
2022-11-23 20:15:44.080,0.9296789,1.0723499,0.5810423,1.0076898,0.9251463,0.68994915,0.26952118,0.82359874,0.7980421,0.33304158,0.25904182,0.7144623,0.29121226,-0.21282397,0.018538937,0.48884198,-0.09506822,-0.5566438,-0.38255405,0.09408311,807.8755,807.47253,806.6667,815.9341,832.8571,-0.20513916015625,0.003662109375,1.00042724609375,2.564544677734375,-1.846771240234375,0.43365478515625,1,1.0,1.0,1.0,1.0,55.00
2022-11-23 20:15:44.124,0.9296789,1.0723499,0.5810423,1.0076898,0.9251463,0.68994915,0.26952118,0.82359874,0.7980421,0.33304158,0.25904182,0.7144623,0.29121226,-0.21282397,0.018538937,0.48884198,-0.09506822,-0.5566438,-0.38255405,0.09408311,753.47986,807.8755,807.47253,782.49084,652.3443,-0.20513916015625,0.003662109375,1.00042724609375,2.564544677734375,-1.846771240234375,0.43365478515625,1,1.0,1.0,1.0,1.0,55.00
2022-11-23 20:15:44.124,0.9296789,1.0723499,0.5810423,1.0076898,0.9251463,0.68994915,0.26952118,0.82359874,0.7980421,0.33304158,0.25904182,0.7144623,0.29121226,-0.21282397,0.018538937,0.48884198,-0.09506822,-0.5566438,-0.38255405,0.09408311,763.5531,805.8608,805.8608,783.69965,707.9487,-0.20513916015625,0.003662109375,1.00042724609375,2.564544677734375,-1.846771240234375,0.43365478515625,1,1.0,1.0,1.0,1.0,55.00
2022-11-23 20:15:44.125,0.9296789,1.0723499,0.5810423,1.0076898,0.9251463,0.68994915,0.26952118,0.82359874,0.7980421,0.33304158,0.25904182,0.7144623,0.29121226,-0.21282397,0.018538937,0.48884198,-0.09506822,-0.5566438,-0.38255405,0.09408311,817.1429,800.6227,802.6374,817.9487,898.93774,-0.20513916015625,0.003662109375,1.00042724609375,2.564544677734375,-1.846771240234375,0.43365478515625,1,1.0,1.0,1.0,1.0,55.00
2022-11-23 20:15:44.125,0.9296789,1.0723499,0.5810423,1.0076898,0.9251463,0.68994915,0.26952118,0.82359874,0.7980421,0.33304158,0.25904182,0.7144623,0.29121226,-0.21282397,0.018538937,0.48884198,-0.09506822,-0.5566438,-0.38255405,0.09408311,814.7253,800.6227,805.05493,820.7692,878.3883,-0.20513916015625,0.003662109375,1.00042724609375,2.564544677734375,-1.846771240234375,0.43365478515625,1,1.0,1.0,1.0,1.0,55.00
2022-11-23 20:15:44.125,0.9296789,1.0723499,0.5810423,1.0076898,0.9251463,0.68994915,0.26952118,0.82359874,0.7980421,0.33304158,0.25904182,0.7144623,0.29121226,-0.21282397,0.018538937,0.48884198,-0.09506822,-0.5566438,-0.38255405,0.09408311,766.77655,806.26373,806.26373,782.8938,812.71063,-0.20513916015625,0.003662109375,1.00042724609375,2.564544677734375,-1.846771240234375,0.43365478515625,1,1.0,1.0,1.0,1.0,55.00
2022-11-23 20:15:44.125,0.9296789,1.0723499,0.5810423,1.0076898,0.9251463,0.68994915,0.26952118,0.82359874,0.7980421,0.33304158,0.25904182,0.7144623,0.29121226,-0.21282397,0.018538937,0.48884198,-0.09506822,-0.5566438,-0.38255405,0.09408311,763.5531,808.68134,809.4872,782.49084,860.65936,-0.20513916015625,0.003662109375,1.00042724609375,2.564544677734375,-1.846771240234375,0.43365478515625,1,1.0,1.0,1.0,1.0,55.00
2022-11-23 20:15:44.126,0.9296789,1.0723499,0.5810423,1.0076898,0.9251463,0.68994915,0.26952118,0.82359874,0.7980421,0.33304158,0.25904182,0.7144623,0.29121226,-0.21282397,0.018538937,0.48884198,-0.09506822,-0.5566438,-0.38255405,0.09408311,813.1135,810.293,811.50183,820.3663,967.4359,-0.20513916015625,0.003662109375,1.00042724609375,2.564544677734375,-1.846771240234375,0.43365478515625,1,1.0,1.0,1.0,1.0,55.00
2022-11-23 20:15:44.126,0.9296789,1.0723499,0.5810423,1.0076898,0.9251463,0.68994915,0.26952118,0.82359874,0.7980421,0.33304158,0.25904182,0.7144623,0.29121226,-0.21282397,0.018538937,0.48884198,-0.09506822,-0.5566438,-0.38255405,0.09408311,833.663,813.91943,810.696,829.2308,1016.5934,-0.20513916015625,0.003662109375,1.00042724609375,2.564544677734375,-1.846771240234375,0.43365478515625,1,1.0,1.0,1.0,1.0,55.00
2022-11-23 20:15:44.126,0.9296789,1.0723499,0.5810423,1.0076898,0.9251463,0.68994915,0.26952118,0.82359874,0.7980421,0.33304158,0.25904182,0.7144623,0.29121226,-0.21282397,0.018538937,0.48884198,-0.09506822,-0.5566438,-0.38255405,0.09408311,791.75824,813.5165,807.0696,803.8461,1060.1099,-0.20513916015625,0.003662109375,1.00042724609375,2.564544677734375,-1.846771240234375,0.43365478515625,1,1.0,1.0,1.0,1.0,55.00
2022-11-23 20:15:44.126,0.9296789,1.0723499,0.5810423,1.0076898,0.9251463,0.68994915,0.26952118,0.82359874,0.7980421,0.33304158,0.25904182,0.7144623,0.29121226,-0.21282397,0.018538937,0.48884198,-0.09506822,-0.5566438,-0.38255405,0.09408311,767.1795,811.9048,808.2784,791.75824,891.685,-0.20513916015625,0.003662109375,1.00042724609375,2.564544677734375,-1.846771240234375,0.43365478515625,1,1.0,1.0,1.0,1.0,55.00
2022-11-23 20:15:44.127,0.9296789,1.0723499,0.5810423,1.0076898,0.9251463,0.68994915,0.26952118,0.82359874,0.7980421,0.33304158,0.25904182,0.7144623,0.29121226,-0.21282397,0.018538937,0.48884198,-0.09506822,-0.5566438,-0.38255405,0.09408311,807.47253,813.1135,811.9048,812.3077,788.5348,-0.20513916015625,0.003662109375,1.00042724609375,2.564544677734375,-1.846771240234375,0.43365478515625,1,1.0,1.0,1.0,1.0,55.00
2022-11-23 20:15:44.127,0.9296789,1.0723499,0.5810423,1.0076898,0.9251463,0.68994915,0.26952118,0.82359874,0.7980421,0.33304158,0.25904182,0.7144623,0.29121226,-0.21282397,0.018538937,0.48884198,-0.09506822,-0.5566438,-0.38255405,0.09408311,841.7216,808.2784,809.4872,826.0073,871.9414,-0.20513916015625,0.003662109375,1.00042724609375,2.564544677734375,-1.846771240234375,0.43365478515625,1,1.0,1.0,1.0,1.0,55.00
2022-11-23 20:15:44.174,0.9296789,1.0723499,0.5810423,1.0076898,0.9251463,0.68994915,0.26952118,0.82359874,0.7980421,0.33304158,0.25904182,0.7144623,0.29121226,-0.21282397,0.018538937,0.48884198,-0.09506822,-0.5566438,-0.38255405,0.09408311,805.8608,799.011,807.0696,805.4579,768.3883,-0.21087646484375,0.00750732421875,0.99359130859375,2.64678955078125,-0.471038818359375,-0.485992431640625,1,1.0,1.0,1.0,1.0,55.00
2022-11-23 20:15:44.174,0.9296789,1.0723499,0.5810423,1.0076898,0.9251463,0.68994915,0.26952118,0.82359874,0.7980421,0.33304158,0.25904182,0.7144623,0.29121226,-0.21282397,0.018538937,0.48884198,-0.09506822,-0.5566438,-0.38255405,0.09408311,762.3443,797.8022,807.47253,774.43225,635.0183,-0.21087646484375,0.00750732421875,0.99359130859375,2.64678955078125,-0.471038818359375,-0.485992431640625,1,1.0,1.0,1.0,1.0,55.00
2022-11-23 20:15:44.174,0.9296789,1.0723499,0.5810423,1.0076898,0.9251463,0.68994915,0.26952118,0.82359874,0.7980421,0.33304158,0.25904182,0.7144623,0.29121226,-0.21282397,0.018538937,0.48884198,-0.09506822,-0.5566438,-0.38255405,0.09408311,785.31134,801.8315,807.47253,787.326,657.1795,-0.21087646484375,0.00750732421875,0.99359130859375,2.64678955078125,-0.471038818359375,-0.485992431640625,1,1.0,1.0,1.0,1.0,55.00
2022-11-23 20:15:44.175,0.9296789,1.0723499,0.5810423,1.0076898,0.9251463,0.68994915,0.26952118,0.82359874,0.7980421,0.33304158,0.25904182,0.7144623,0.29121226,-0.21282397,0.018538937,0.48884198,-0.09506822,-0.5566438,-0.38255405,0.09408311,833.663,802.6374,801.4286,816.337,818.7546,-0.21087646484375,0.00750732421875,0.99359130859375,2.64678955078125,-0.471038818359375,-0.485992431640625,1,1.0,1.0,1.0,1.0,55.00
2022-11-23 20:15:44.175,0.9296789,1.0723499,0.5810423,1.0076898,0.9251463,0.68994915,0.26952118,0.82359874,0.7980421,0.33304158,0.25904182,0.7144623,0.29121226,-0.21282397,0.018538937,0.48884198,-0.09506822,-0.5566438,-0.38255405,0.09408311,822.381,801.8315,799.41394,801.02563,868.71796,-0.21087646484375,0.00750732421875,0.99359130859375,2.64678955078125,-0.471038818359375,-0.485992431640625,1,1.0,1.0,1.0,1.0,55.00
2022-11-23 20:15:44.175,0.9489108,1.1701881,0.60684276,1.0304296,0.9581973,0.74654883,0.3002379,0.8528441,0.7980421,0.33392113,0.25904182,0.7144623,0.3041806,-0.21447447,0.008025866,0.4952919,-0.09450863,-0.5381219,-0.36028814,0.12143906,772.4176,803.44324,800.6227,773.22345,731.7216,-0.21087646484375,0.00750732421875,0.99359130859375,2.64678955078125,-0.471038818359375,-0.485992431640625,1,1.0,1.0,1.0,1.0,55.00
2022-11-23 20:15:44.176,0.9489108,1.1701881,0.60684276,1.0304296,0.9581973,0.74654883,0.3002379,0.8528441,0.7980421,0.33392113,0.25904182,0.7144623,0.3041806,-0.21447447,0.008025866,0.4952919,-0.09450863,-0.5381219,-0.36028814,0.12143906,778.86444,805.05493,798.60803,782.0879,667.25275,-0.21087646484375,0.00750732421875,0.99359130859375,2.64678955078125,-0.471038818359375,-0.485992431640625,1,1.0,1.0,1.0,1.0,55.00
2022-11-23 20:15:44.177,0.9489108,1.1701881,0.60684276,1.0304296,0.9581973,0.74654883,0.3002379,0.8528441,0.7980421,0.33392113,0.25904182,0.7144623,0.3041806,-0.21447447,0.008025866,0.4952919,-0.09450863,-0.5381219,-0.36028814,0.12143906,829.2308,802.6374,797.8022,819.5604,972.27106,-0.21087646484375,0.00750732421875,0.99359130859375,2.64678955078125,-0.471038818359375,-0.485992431640625,1,1.0,1.0,1.0,1.0,55.00
2022-11-23 20:15:44.177,0.9489108,1.1701881,0.60684276,1.0304296,0.9581973,0.74654883,0.3002379,0.8528441,0.7980421,0.33392113,0.25904182,0.7144623,0.3041806,-0.21447447,0.008025866,0.4952919,-0.09450863,-0.5381219,-0.36028814,0.12143906,832.8571,802.23444,796.99634,828.8278,1272.8572,-0.21087646484375,0.00750732421875,0.99359130859375,2.64678955078125,-0.471038818359375,-0.485992431640625,1,1.0,1.0,1.0,1.0,55.00
2022-11-23 20:15:44.177,0.9489108,1.1701881,0.60684276,1.0304296,0.9581973,0.74654883,0.3002379,0.8528441,0.7980421,0.33392113,0.25904182,0.7144623,0.3041806,-0.21447447,0.008025866,0.4952919,-0.09450863,-0.5381219,-0.36028814,0.12143906,788.93774,799.81683,796.99634,792.1612,925.5311,-0.21087646484375,0.00750732421875,0.99359130859375,2.64678955078125,-0.471038818359375,-0.485992431640625,1,1.0,1.0,1.0,1.0,55.00
2022-11-23 20:15:44.177,0.9489108,1.1701881,0.60684276,1.0304296,0.9581973,0.74654883,0.3002379,0.8528441,0.7980421,0.33392113,0.25904182,0.7144623,0.3041806,-0.21447447,0.008025866,0.4952919,-0.09450863,-0.5381219,-0.36028814,0.12143906,777.6557,797.3993,800.6227,782.49084,572.5641,-0.21087646484375,0.00750732421875,0.99359130859375,2.64678955078125,-0.471038818359375,-0.485992431640625,1,1.0,1.0,1.0,1.0,55.00
2022-11-23 20:15:44.177,0.9489108,1.1701881,0.60684276,1.0304296,0.9581973,0.74654883,0.3002379,0.8528441,0.7980421,0.33392113,0.25904182,0.7144623,0.3041806,-0.21447447,0.008025866,0.4952919,-0.09450863,-0.5381219,-0.36028814,0.12143906,814.7253,803.8461,798.20514,816.337,730.9158,-0.21087646484375,0.00750732421875,0.99359130859375,2.64678955078125,-0.471038818359375,-0.485992431640625,1,1.0,1.0,1.0,1.0,55.00
2022-11-23 20:15:44.199,0.9489108,1.1701881,0.60684276,1.0304296,0.9581973,0.74654883,0.3002379,0.8528441,0.7980421,0.33392113,0.25904182,0.7144623,0.3041806,-0.21447447,0.008025866,0.4952919,-0.09450863,-0.5381219,-0.36028814,0.12143906,836.08057,803.8461,796.5934,831.6484,904.9817,-0.2152099609375,0.00262451171875,0.9927978515625,2.03369140625,-1.472930908203125,-0.11962890625,1,1.0,1.0,1.0,1.0,55.00
2022-11-23 20:15:44.200,0.9489108,1.1701881,0.60684276,1.0304296,0.9581973,0.74654883,0.3002379,0.8528441,0.7980421,0.33392113,0.25904182,0.7144623,0.3041806,-0.21447447,0.008025866,0.4952919,-0.09450863,-0.5381219,-0.36028814,0.12143906,802.6374,800.6227,800.6227,799.011,755.4945,-0.2152099609375,0.00262451171875,0.9927978515625,2.03369140625,-1.472930908203125,-0.11962890625,1,1.0,1.0,1.0,1.0,55.00
2022-11-23 20:15:44.200,0.9489108,1.1701881,0.60684276,1.0304296,0.9581973,0.74654883,0.3002379,0.8528441,0.7980421,0.33392113,0.25904182,0.7144623,0.3041806,-0.21447447,0.008025866,0.4952919,-0.09450863,-0.5381219,-0.36028814,0.12143906,769.59705,803.44324,805.8608,777.6557,571.3553,-0.2152099609375,0.00262451171875,0.9927978515625,2.03369140625,-1.472930908203125,-0.11962890625,1,1.0,1.0,1.0,1.0,55.00
2022-11-23 20:15:44.200,0.9489108,1.1701881,0.60684276,1.0304296,0.9581973,0.74654883,0.3002379,0.8528441,0.7980421,0.33392113,0.25904182,0.7144623,0.3041806,-0.21447447,0.008025866,0.4952919,-0.09450863,-0.5381219,-0.36028814,0.12143906,802.23444,804.65204,805.4579,811.50183,644.68866,-0.2152099609375,0.00262451171875,0.9927978515625,2.03369140625,-1.472930908203125,-0.11962890625,1,1.0,1.0,1.0,1.0,55.00
2022-11-23 20:15:44.200,0.9489108,1.1701881,0.60684276,1.0304296,0.9581973,0.74654883,0.3002379,0.8528441,0.7980421,0.33392113,0.25904182,0.7144623,0.3041806,-0.21447447,0.008025866,0.4952919,-0.09450863,-0.5381219,-0.36028814,0.12143906,841.7216,805.8608,805.4579,844.5421,830.4396,-0.2152099609375,0.00262451171875,0.9927978515625,2.03369140625,-1.472930908203125,-0.11962890625,1,1.0,1.0,1.0,1.0,55.00
2022-11-23 20:15:44.201,0.9489108,1.1701881,0.60684276,1.0304296,0.9581973,0.74654883,0.3002379,0.8528441,0.7980421,0.33392113,0.25904182,0.7144623,0.3041806,-0.21447447,0.008025866,0.4952919,-0.09450863,-0.5381219,-0.36028814,0.12143906,809.0842,805.4579,806.6667,817.9487,833.663,-0.2152099609375,0.00262451171875,0.9927978515625,2.03369140625,-1.472930908203125,-0.11962890625,1,1.0,1.0,1.0,1.0,55.00
2022-11-23 20:15:44.201,0.9489108,1.1701881,0.60684276,1.0304296,0.9581973,0.74654883,0.3002379,0.8528441,0.7980421,0.33392113,0.25904182,0.7144623,0.3041806,-0.21447447,0.008025866,0.4952919,-0.09450863,-0.5381219,-0.36028814,0.12143906,760.7326,805.05493,801.8315,782.49084,753.47986,-0.2152099609375,0.00262451171875,0.9927978515625,2.03369140625,-1.472930908203125,-0.11962890625,1,1.0,1.0,1.0,1.0,55.00
2022-11-23 20:15:44.201,0.9489108,1.1701881,0.60684276,1.0304296,0.9581973,0.74654883,0.3002379,0.8528441,0.7980421,0.33392113,0.25904182,0.7144623,0.3041806,-0.21447447,0.008025866,0.4952919,-0.09450863,-0.5381219,-0.36028814,0.12143906,784.10254,805.4579,803.0403,798.60803,929.15753,-0.2152099609375,0.00262451171875,0.9927978515625,2.03369140625,-1.472930908203125,-0.11962890625,1,1.0,1.0,1.0,1.0,55.00
2022-11-23 20:15:44.201,0.9489108,1.1701881,0.60684276,1.0304296,0.9581973,0.74654883,0.3002379,0.8528441,0.7980421,0.33392113,0.25904182,0.7144623,0.3041806,-0.21447447,0.008025866,0.4952919,-0.09450863,-0.5381219,-0.36028814,0.12143906,836.08057,805.4579,804.65204,830.0366,1014.17584,-0.2152099609375,0.00262451171875,0.9927978515625,2.03369140625,-1.472930908203125,-0.11962890625,1,1.0,1.0,1.0,1.0,55.00
2022-11-23 20:15:44.202,0.9489108,1.1701881,0.60684276,1.0304296,0.9581973,0.74654883,0.3002379,0.8528441,0.7980421,0.33392113,0.25904182,0.7144623,0.3041806,-0.21447447,0.008025866,0.4952919,-0.09450863,-0.5381219,-0.36028814,0.12143906,830.0366,809.4872,806.6667,818.3516,829.2308,-0.2152099609375,0.00262451171875,0.9927978515625,2.03369140625,-1.472930908203125,-0.11962890625,1,1.0,1.0,1.0,1.0,55.00
