TimeStamp,Delta_TP9,Delta_AF7,Delta_AF8,Delta_TP10,Theta_TP9,Theta_AF7,Theta_AF8,Theta_TP10,Alpha_TP9,Alpha_AF7,Alpha_AF8,Alpha_TP10,Beta_TP9,Beta_AF7,Beta_AF8,Beta_TP10,Gamma_TP9,Gamma_AF7,Gamma_AF8,Gamma_TP10,RAW_TP9,RAW_AF7,RAW_AF8,RAW_TP10,AUX_RIGHT,Accelerometer_X,Accelerometer_Y,Accelerometer_Z,Gyro_X,Gyro_Y,Gyro_Z,HeadBandOn,HSI_TP9,HSI_AF7,HSI_AF8,HSI_TP10,Battery,Elements
2022-11-23 20:14:05.061,0.85547,-0.14560728,-0.029169109,0.7846488,0.344764,-0.3407934,-0.14051737,0.41452277,0.6882241,-0.076632656,0.034029827,0.48532832,0.17646825,-0.09024551,-0.09649698,0.39949116,-0.08370633,-0.5827248,-0.4726023,-0.0442548,861.8681,803.44324,799.41394,838.0952,928.7546,-0.20013427734375,-0.02294921875,1.000732421875,3.386993408203125,-0.157012939453125,1.293487548828125,1,1.0,1.0,1.0,1.0,55.00
2022-11-23 20:14:05.062,0.85547,-0.14560728,-0.029169109,0.7846488,0.344764,-0.3407934,-0.14051737,0.41452277,0.6882241,-0.076632656,0.034029827,0.48532832,0.17646825,-0.09024551,-0.09649698,0.39949116,-0.08370633,-0.5827248,-0.4726023,-0.0442548,826.4103,802.23444,797.3993,815.5311,749.85345,-0.20013427734375,-0.02294921875,1.000732421875,3.386993408203125,-0.157012939453125,1.293487548828125,1,1.0,1.0,1.0,1.0,55.00
2022-11-23 20:14:05.062,0.85547,-0.14560728,-0.029169109,0.7846488,0.344764,-0.3407934,-0.14051737,0.41452277,0.6882241,-0.076632656,0.034029827,0.48532832,0.17646825,-0.09024551,-0.09649698,0.39949116,-0.08370633,-0.5827248,-0.4726023,-0.0442548,767.98535,801.8315,798.20514,786.52014,633.4066,-0.20013427734375,-0.02294921875,1.000732421875,3.386993408203125,-0.157012939453125,1.293487548828125,1,1.0,1.0,1.0,1.0,55.00
2022-11-23 20:14:05.062,0.85547,-0.14560728,-0.029169109,0.7846488,0.344764,-0.3407934,-0.14051737,0.41452277,0.6882241,-0.076632656,0.034029827,0.48532832,0.17646825,-0.09024551,-0.09649698,0.39949116,-0.08370633,-0.5827248,-0.4726023,-0.0442548,792.1612,802.23444,800.2198,803.0403,682.1612,-0.20013427734375,-0.02294921875,1.000732421875,3.386993408203125,-0.157012939453125,1.293487548828125,1,1.0,1.0,1.0,1.0,55.00
2022-11-23 20:14:05.063,0.85547,-0.14560728,-0.029169109,0.7846488,0.344764,-0.3407934,-0.14051737,0.41452277,0.6882241,-0.076632656,0.034029827,0.48532832,0.17646825,-0.09024551,-0.09649698,0.39949116,-0.08370633,-0.5827248,-0.4726023,-0.0442548,852.6007,802.23444,802.6374,842.1245,852.1978,-0.20013427734375,-0.02294921875,1.000732421875,3.386993408203125,-0.157012939453125,1.293487548828125,1,1.0,1.0,1.0,1.0,55.00
2022-11-23 20:14:05.063,0.85547,-0.14560728,-0.029169109,0.7846488,0.344764,-0.3407934,-0.14051737,0.41452277,0.6882241,-0.076632656,0.034029827,0.48532832,0.17646825,-0.09024551,-0.09649698,0.39949116,-0.08370633,-0.5827248,-0.4726023,-0.0442548,843.3333,804.65204,805.05493,832.4542,847.3626,-0.20013427734375,-0.02294921875,1.000732421875,3.386993408203125,-0.157012939453125,1.293487548828125,1,1.0,1.0,1.0,1.0,55.00
2022-11-23 20:14:05.063,0.85547,-0.14560728,-0.029169109,0.7846488,0.344764,-0.3407934,-0.14051737,0.41452277,0.6882241,-0.076632656,0.034029827,0.48532832,0.17646825,-0.09024551,-0.09649698,0.39949116,-0.08370633,-0.5827248,-0.4726023,-0.0442548,782.8938,804.65204,803.0403,784.10254,732.9304,-0.20013427734375,-0.02294921875,1.000732421875,3.386993408203125,-0.157012939453125,1.293487548828125,1,1.0,1.0,1.0,1.0,55.00
2022-11-23 20:14:05.063,0.85547,-0.14560728,-0.029169109,0.7846488,0.344764,-0.3407934,-0.14051737,0.41452277,0.6882241,-0.076632656,0.034029827,0.48532832,0.17646825,-0.09024551,-0.09649698,0.39949116,-0.08370633,-0.5827248,-0.4726023,-0.0442548,780.87915,806.6667,800.2198,795.38464,953.73627,-0.20013427734375,-0.02294921875,1.000732421875,3.386993408203125,-0.157012939453125,1.293487548828125,1,1.0,1.0,1.0,1.0,55.00
2022-11-23 20:14:05.064,0.85547,-0.14560728,-0.029169109,0.7846488,0.344764,-0.3407934,-0.14051737,0.41452277,0.6882241,-0.076632656,0.034029827,0.48532832,0.17646825,-0.09024551,-0.09649698,0.39949116,-0.08370633,-0.5827248,-0.4726023,-0.0442548,845.7509,805.4579,799.41394,846.9597,987.5824,-0.20013427734375,-0.02294921875,1.000732421875,3.386993408203125,-0.157012939453125,1.293487548828125,1,1.0,1.0,1.0,1.0,55.00
2022-11-23 20:14:05.064,0.8590081,-0.1635267,-0.009604829,0.7824292,0.36020967,-0.38868982,-0.16326846,0.4188647,0.6882241,-0.09494472,0.013003877,0.47730848,0.18141161,-0.11270721,-0.1103889,0.38676116,-0.09917498,-0.59993386,-0.48242667,-0.07051852,858.24176,805.05493,803.0403,848.5714,810.293,-0.20013427734375,-0.02294921875,1.000732421875,3.386993408203125,-0.157012939453125,1.293487548828125,1,1.0,1.0,1.0,1.0,55.00
2022-11-23 20:14:05.065,0.8590081,-0.1635267,-0.009604829,0.7824292,0.36020967,-0.38868982,-0.16326846,0.4188647,0.6882241,-0.09494472,0.013003877,0.47730848,0.18141161,-0.11270721,-0.1103889,0.38676116,-0.09917498,-0.59993386,-0.48242667,-0.07051852,797.8022,809.89014,804.2491,797.3993,688.20514,-0.20013427734375,-0.02294921875,1.000732421875,3.386993408203125,-0.157012939453125,1.293487548828125,1,1.0,1.0,1.0,1.0,55.00
2022-11-23 20:14:05.065,0.8590081,-0.1635267,-0.009604829,0.7824292,0.36020967,-0.38868982,-0.16326846,0.4188647,0.6882241,-0.09494472,0.013003877,0.47730848,0.18141161,-0.11270721,-0.1103889,0.38676116,-0.09917498,-0.59993386,-0.48242667,-0.07051852,779.67035,811.50183,804.2491,782.0879,585.4579,-0.20013427734375,-0.02294921875,1.000732421875,3.386993408203125,-0.157012939453125,1.293487548828125,1,1.0,1.0,1.0,1.0,55.00
2022-11-23 20:14:05.093,0.8590081,-0.1635267,-0.009604829,0.7824292,0.36020967,-0.38868982,-0.16326846,0.4188647,0.6882241,-0.09494472,0.013003877,0.47730848,0.18141161,-0.11270721,-0.1103889,0.38676116,-0.09917498,-0.59993386,-0.48242667,-0.07051852,830.84247,811.0989,807.8755,829.2308,730.5128,-0.209716796875,-0.01812744140625,0.99774169921875,4.246826171875,-0.471038818359375,1.532745361328125,1,1.0,1.0,1.0,1.0,55.00
2022-11-23 20:14:05.093,0.8590081,-0.1635267,-0.009604829,0.7824292,0.36020967,-0.38868982,-0.16326846,0.4188647,0.6882241,-0.09494472,0.013003877,0.47730848,0.18141161,-0.11270721,-0.1103889,0.38676116,-0.09917498,-0.59993386,-0.48242667,-0.07051852,857.4359,811.0989,805.4579,844.94507,869.12085,-0.209716796875,-0.01812744140625,0.99774169921875,4.246826171875,-0.471038818359375,1.532745361328125,1,1.0,1.0,1.0,1.0,55.00
2022-11-23 20:14:05.094,0.8590081,-0.1635267,-0.009604829,0.7824292,0.36020967,-0.38868982,-0.16326846,0.4188647,0.6882241,-0.09494472,0.013003877,0.47730848,0.18141161,-0.11270721,-0.1103889,0.38676116,-0.09917498,-0.59993386,-0.48242667,-0.07051852,811.9048,810.696,803.44324,803.44324,778.86444,-0.209716796875,-0.01812744140625,0.99774169921875,4.246826171875,-0.471038818359375,1.532745361328125,1,1.0,1.0,1.0,1.0,55.00
2022-11-23 20:14:05.094,0.8590081,-0.1635267,-0.009604829,0.7824292,0.36020967,-0.38868982,-0.16326846,0.4188647,0.6882241,-0.09494472,0.013003877,0.47730848,0.18141161,-0.11270721,-0.1103889,0.38676116,-0.09917498,-0.59993386,-0.48242667,-0.07051852,773.6264,810.293,807.8755,781.685,635.0183,-0.209716796875,-0.01812744140625,0.99774169921875,4.246826171875,-0.471038818359375,1.532745361328125,1,1.0,1.0,1.0,1.0,55.00
2022-11-23 20:14:05.094,0.8590081,-0.1635267,-0.009604829,0.7824292,0.36020967,-0.38868982,-0.16326846,0.4188647,0.6882241,-0.09494472,0.013003877,0.47730848,0.18141161,-0.11270721,-0.1103889,0.38676116,-0.09917498,-0.59993386,-0.48242667,-0.07051852,807.8755,807.0696,803.44324,813.91943,667.25275,-0.209716796875,-0.01812744140625,0.99774169921875,4.246826171875,-0.471038818359375,1.532745361328125,1,1.0,1.0,1.0,1.0,55.00
2022-11-23 20:14:05.095,0.8590081,-0.1635267,-0.009604829,0.7824292,0.36020967,-0.38868982,-0.16326846,0.4188647,0.6882241,-0.09494472,0.013003877,0.47730848,0.18141161,-0.11270721,-0.1103889,0.38676116,-0.09917498,-0.59993386,-0.48242667,-0.07051852,860.65936,808.2784,800.2198,841.7216,864.2857,-0.209716796875,-0.01812744140625,0.99774169921875,4.246826171875,-0.471038818359375,1.532745361328125,1,1.0,1.0,1.0,1.0,55.00
2022-11-23 20:14:05.095,0.8590081,-0.1635267,-0.009604829,0.7824292,0.36020967,-0.38868982,-0.16326846,0.4188647,0.6882241,-0.09494472,0.013003877,0.47730848,0.18141161,-0.11270721,-0.1103889,0.38676116,-0.09917498,-0.59993386,-0.48242667,-0.07051852,833.2601,808.2784,799.81683,818.7546,1028.2784,-0.209716796875,-0.01812744140625,0.99774169921875,4.246826171875,-0.471038818359375,1.532745361328125,1,1.0,1.0,1.0,1.0,55.00
2022-11-23 20:14:05.095,0.8590081,-0.1635267,-0.009604829,0.7824292,0.36020967,-0.38868982,-0.16326846,0.4188647,0.6882241,-0.09494472,0.013003877,0.47730848,0.18141161,-0.11270721,-0.1103889,0.38676116,-0.09917498,-0.59993386,-0.48242667,-0.07051852,767.5824,807.8755,797.3993,779.67035,906.1905,-0.209716796875,-0.01812744140625,0.99774169921875,4.246826171875,-0.471038818359375,1.532745361328125,1,1.0,1.0,1.0,1.0,55.00
2022-11-23 20:14:05.095,0.8590081,-0.1635267,-0.009604829,0.7824292,0.36020967,-0.38868982,-0.16326846,0.4188647,0.6882241,-0.09494472,0.013003877,0.47730848,0.18141161,-0.11270721,-0.1103889,0.38676116,-0.09917498,-0.59993386,-0.48242667,-0.07051852,785.31134,809.89014,798.60803,786.52014,648.71796,-0.209716796875,-0.01812744140625,0.99774169921875,4.246826171875,-0.471038818359375,1.532745361328125,1,1.0,1.0,1.0,1.0,55.00
2022-11-23 20:14:05.096,0.8590081,-0.1635267,-0.009604829,0.7824292,0.36020967,-0.38868982,-0.16326846,0.4188647,0.6882241,-0.09494472,0.013003877,0.47730848,0.18141161,-0.11270721,-0.1103889,0.38676116,-0.09917498,-0.59993386,-0.48242667,-0.07051852,850.18317,809.89014,801.02563,832.0513,820.7692,-0.209716796875,-0.01812744140625,0.99774169921875,4.246826171875,-0.471038818359375,1.532745361328125,1,1.0,1.0,1.0,1.0,55.00
2022-11-23 20:14:05.096,0.8590081,-0.1635267,-0.009604829,0.7824292,0.36020967,-0.38868982,-0.16326846,0.4188647,0.6882241,-0.09494472,0.013003877,0.47730848,0.18141161,-0.11270721,-0.1103889,0.38676116,-0.09917498,-0.59993386,-0.48242667,-0.07051852,840.5128,809.4872,799.011,831.2454,1004.5055,-0.209716796875,-0.01812744140625,0.99774169921875,4.246826171875,-0.471038818359375,1.532745361328125,1,1.0,1.0,1.0,1.0,55.00
2022-11-23 20:14:05.096,0.8590081,-0.1635267,-0.009604829,0.7824292,0.36020967,-0.38868982,-0.16326846,0.4188647,0.6882241,-0.09494472,0.013003877,0.47730848,0.18141161,-0.11270721,-0.1103889,0.38676116,-0.09917498,-0.59993386,-0.48242667,-0.07051852,771.6117,803.44324,799.41394,778.46155,707.9487,-0.209716796875,-0.01812744140625,0.99774169921875,4.246826171875,-0.471038818359375,1.532745361328125,1,1.0,1.0,1.0,1.0,55.00
2022-11-23 20:14:05.138,0.8590081,-0.1635267,-0.009604829,0.7824292,0.36020967,-0.38868982,-0.16326846,0.4188647,0.6882241,-0.09494472,0.013003877,0.47730848,0.18141161,-0.11270721,-0.1103889,0.38676116,-0.09917498,-0.59993386,-0.48242667,-0.07051852,761.13556,799.81683,801.4286,772.8205,561.685,-0.20379638671875,-0.01934814453125,1.00592041015625,5.061798095703125,0.949554443359375,1.039276123046875,1,1.0,1.0,1.0,1.0,55.00
2022-11-23 20:14:05.138,0.8590081,-0.1635267,-0.009604829,0.7824292,0.36020967,-0.38868982,-0.16326846,0.4188647,0.6882241,-0.09494472,0.013003877,0.47730848,0.18141161,-0.11270721,-0.1103889,0.38676116,-0.09917498,-0.59993386,-0.48242667,-0.07051852,825.6044,805.8608,807.0696,832.0513,791.3553,-0.20379638671875,-0.01934814453125,1.00592041015625,5.061798095703125,0.949554443359375,1.039276123046875,1,1.0,1.0,1.0,1.0,55.00
2022-11-23 20:14:05.139,0.8590081,-0.1635267,-0.009604829,0.7824292,0.36020967,-0.38868982,-0.16326846,0.4188647,0.6882241,-0.09494472,0.013003877,0.47730848,0.18141161,-0.11270721,-0.1103889,0.38676116,-0.09917498,-0.59993386,-0.48242667,-0.07051852,854.21246,805.8608,812.3077,846.1539,919.89014,-0.20379638671875,-0.01934814453125,1.00592041015625,5.061798095703125,0.949554443359375,1.039276123046875,1,1.0,1.0,1.0,1.0,55.00
2022-11-23 20:14:05.139,0.8590081,-0.1635267,-0.009604829,0.7824292,0.36020967,-0.38868982,-0.16326846,0.4188647,0.6882241,-0.09494472,0.013003877,0.47730848,0.18141161,-0.11270721,-0.1103889,0.38676116,-0.09917498,-0.59993386,-0.48242667,-0.07051852,800.2198,804.2491,811.50183,801.4286,770.40295,-0.20379638671875,-0.01934814453125,1.00592041015625,5.061798095703125,0.949554443359375,1.039276123046875,1,1.0,1.0,1.0,1.0,55.00
2022-11-23 20:14:05.139,0.8590081,-0.1635267,-0.009604829,0.7824292,0.36020967,-0.38868982,-0.16326846,0.4188647,0.6882241,-0.09494472,0.013003877,0.47730848,0.18141161,-0.11270721,-0.1103889,0.38676116,-0.09917498,-0.59993386,-0.48242667,-0.07051852,772.4176,807.8755,810.293,781.28204,590.293,-0.20379638671875,-0.01934814453125,1.00592041015625,5.061798095703125,0.949554443359375,1.039276123046875,1,1.0,1.0,1.0,1.0,55.00
2022-11-23 20:14:05.139,0.8590081,-0.1635267,-0.009604829,0.7824292,0.36020967,-0.38868982,-0.16326846,0.4188647,0.6882241,-0.09494472,0.013003877,0.47730848,0.18141161,-0.11270721,-0.1103889,0.38676116,-0.09917498,-0.59993386,-0.48242667,-0.07051852,815.12823,805.4579,809.0842,811.50183,767.5824,-0.20379638671875,-0.01934814453125,1.00592041015625,5.061798095703125,0.949554443359375,1.039276123046875,1,1.0,1.0,1.0,1.0,55.00
2022-11-23 20:14:05.140,0.8590081,-0.1635267,-0.009604829,0.7824292,0.36020967,-0.38868982,-0.16326846,0.4188647,0.6882241,-0.09494472,0.013003877,0.47730848,0.18141161,-0.11270721,-0.1103889,0.38676116,-0.09917498,-0.59993386,-0.48242667,-0.07051852,853.00366,803.44324,809.89014,843.73627,1164.8718,-0.20379638671875,-0.01934814453125,1.00592041015625,5.061798095703125,0.949554443359375,1.039276123046875,1,1.0,1.0,1.0,1.0,55.00
2022-11-23 20:14:05.140,0.8590081,-0.1635267,-0.009604829,0.7824292,0.36020967,-0.38868982,-0.16326846,0.4188647,0.6882241,-0.09494472,0.013003877,0.47730848,0.18141161,-0.11270721,-0.1103889,0.38676116,-0.09917498,-0.59993386,-0.48242667,-0.07051852,817.1429,802.6374,811.0989,813.5165,946.4835,-0.20379638671875,-0.01934814453125,1.00592041015625,5.061798095703125,0.949554443359375,1.039276123046875,1,1.0,1.0,1.0,1.0,55.00
2022-11-23 20:14:05.140,0.8590081,-0.1635267,-0.009604829,0.7824292,0.36020967,-0.38868982,-0.16326846,0.4188647,0.6882241,-0.09494472,0.013003877,0.47730848,0.18141161,-0.11270721,-0.1103889,0.38676116,-0.09917498,-0.59993386,-0.48242667,-0.07051852,767.5824,802.23444,807.47253,784.90845,602.7839,-0.20379638671875,-0.01934814453125,1.00592041015625,5.061798095703125,0.949554443359375,1.039276123046875,1,1.0,1.0,1.0,1.0,55.00
2022-11-23 20:14:05.140,0.8590081,-0.1635267,-0.009604829,0.7824292,0.36020967,-0.38868982,-0.16326846,0.4188647,0.6882241,-0.09494472,0.013003877,0.47730848,0.18141161,-0.11270721,-0.1103889,0.38676116,-0.09917498,-0.59993386,-0.48242667,-0.07051852,790.9524,802.6374,807.0696,809.4872,658.3883,-0.20379638671875,-0.01934814453125,1.00592041015625,5.061798095703125,0.949554443359375,1.039276123046875,1,1.0,1.0,1.0,1.0,55.00
2022-11-23 20:14:05.140,0.8590081,-0.1635267,-0.009604829,0.7824292,0.36020967,-0.38868982,-0.16326846,0.4188647,0.6882241,-0.09494472,0.013003877,0.47730848,0.18141161,-0.11270721,-0.1103889,0.38676116,-0.09917498,-0.59993386,-0.48242667,-0.07051852,855.0183,807.0696,814.7253,832.4542,886.4469,-0.20379638671875,-0.01934814453125,1.00592041015625,5.061798095703125,0.949554443359375,1.039276123046875,1,1.0,1.0,1.0,1.0,55.00
2022-11-23 20:14:05.141,0.8592142,-0.1778142,0.0034385587,0.7751477,0.3782568,-0.40784717,-0.18094221,0.4077808,0.6882241,-0.11607851,0.029847248,0.47741693,0.19647625,-0.13529699,-0.12454225,0.37788486,-0.12268595,-0.62854284,-0.4914285,-0.08454594,833.2601,805.8608,814.7253,821.978,865.4945,-0.20379638671875,-0.01934814453125,1.00592041015625,5.061798095703125,0.949554443359375,1.039276123046875,1,1.0,1.0,1.0,1.0,55.00
2022-11-23 20:14:05.188,0.8592142,-0.1778142,0.0034385587,0.7751477,0.3782568,-0.40784717,-0.18094221,0.4077808,0.6882241,-0.11607851,0.029847248,0.47741693,0.19647625,-0.13529699,-0.12454225,0.37788486,-0.12268595,-0.62854284,-0.4914285,-0.08454594,761.13556,803.44324,810.696,779.2674,664.83514,-0.19879150390625,-0.00482177734375,0.9915771484375,5.36834716796875,-0.575714111328125,4.523468017578125,1,1.0,1.0,1.0,1.0,55.00
2022-11-23 20:14:05.189,0.8592142,-0.1778142,0.0034385587,0.7751477,0.3782568,-0.40784717,-0.18094221,0.4077808,0.6882241,-0.11607851,0.029847248,0.47741693,0.19647625,-0.13529699,-0.12454225,0.37788486,-0.12268595,-0.62854284,-0.4914285,-0.08454594,785.31134,810.293,809.0842,780.87915,707.9487,-0.19879150390625,-0.00482177734375,0.9915771484375,5.36834716796875,-0.575714111328125,4.523468017578125,1,1.0,1.0,1.0,1.0,55.00
2022-11-23 20:14:05.189,0.8592142,-0.1778142,0.0034385587,0.7751477,0.3782568,-0.40784717,-0.18094221,0.4077808,0.6882241,-0.11607851,0.029847248,0.47741693,0.19647625,-0.13529699,-0.12454225,0.37788486,-0.12268595,-0.62854284,-0.4914285,-0.08454594,851.39197,809.89014,809.89014,839.304,887.25275,-0.19879150390625,-0.00482177734375,0.9915771484375,5.36834716796875,-0.575714111328125,4.523468017578125,1,1.0,1.0,1.0,1.0,55.00
2022-11-23 20:14:05.189,0.8592142,-0.1778142,0.0034385587,0.7751477,0.3782568,-0.40784717,-0.18094221,0.4077808,0.6882241,-0.11607851,0.029847248,0.47741693,0.19647625,-0.13529699,-0.12454225,0.37788486,-0.12268595,-0.62854284,-0.4914285,-0.08454594,842.52747,807.47253,811.50183,833.663,896.9231,-0.19879150390625,-0.00482177734375,0.9915771484375,5.36834716796875,-0.575714111328125,4.523468017578125,1,1.0,1.0,1.0,1.0,55.00
2022-11-23 20:14:05.190,0.8592142,-0.1778142,0.0034385587,0.7751477,0.3782568,-0.40784717,-0.18094221,0.4077808,0.6882241,-0.11607851,0.029847248,0.47741693,0.19647625,-0.13529699,-0.12454225,0.37788486,-0.12268595,-0.62854284,-0.4914285,-0.08454594,778.0586,806.6667,805.05493,778.0586,803.8461,-0.19879150390625,-0.00482177734375,0.9915771484375,5.36834716796875,-0.575714111328125,4.523468017578125,1,1.0,1.0,1.0,1.0,55.00
2022-11-23 20:14:05.190,0.8592142,-0.1778142,0.0034385587,0.7751477,0.3782568,-0.40784717,-0.18094221,0.4077808,0.6882241,-0.11607851,0.029847248,0.47741693,0.19647625,-0.13529699,-0.12454225,0.37788486,-0.12268595,-0.62854284,-0.4914285,-0.08454594,766.3736,809.0842,805.4579,772.4176,834.4689,-0.19879150390625,-0.00482177734375,0.9915771484375,5.36834716796875,-0.575714111328125,4.523468017578125,1,1.0,1.0,1.0,1.0,55.00
2022-11-23 20:14:05.190,0.8592142,-0.1778142,0.0034385587,0.7751477,0.3782568,-0.40784717,-0.18094221,0.4077808,0.6882241,-0.11607851,0.029847248,0.47741693,0.19647625,-0.13529699,-0.12454225,0.37788486,-0.12268595,-0.62854284,-0.4914285,-0.08454594,820.3663,805.8608,805.4579,812.3077,969.0476,-0.19879150390625,-0.00482177734375,0.9915771484375,5.36834716796875,-0.575714111328125,4.523468017578125,1,1.0,1.0,1.0,1.0,55.00
2022-11-23 20:14:05.190,0.8592142,-0.1778142,0.0034385587,0.7751477,0.3782568,-0.40784717,-0.18094221,0.4077808,0.6882241,-0.11607851,0.029847248,0.47741693,0.19647625,-0.13529699,-0.12454225,0.37788486,-0.12268595,-0.62854284,-0.4914285,-0.08454594,844.1392,801.4286,802.23444,827.2161,1024.652,-0.19879150390625,-0.00482177734375,0.9915771484375,5.36834716796875,-0.575714111328125,4.523468017578125,1,1.0,1.0,1.0,1.0,55.00
2022-11-23 20:14:05.191,0.8592142,-0.1778142,0.0034385587,0.7751477,0.3782568,-0.40784717,-0.18094221,0.4077808,0.6882241,-0.11607851,0.029847248,0.47741693,0.19647625,-0.13529699,-0.12454225,0.37788486,-0.12268595,-0.62854284,-0.4914285,-0.08454594,797.3993,804.65204,806.6667,792.5641,896.1172,-0.19879150390625,-0.00482177734375,0.9915771484375,5.36834716796875,-0.575714111328125,4.523468017578125,1,1.0,1.0,1.0,1.0,55.00
2022-11-23 20:14:05.191,0.8592142,-0.1778142,0.0034385587,0.7751477,0.3782568,-0.40784717,-0.18094221,0.4077808,0.6882241,-0.11607851,0.029847248,0.47741693,0.19647625,-0.13529699,-0.12454225,0.37788486,-0.12268595,-0.62854284,-0.4914285,-0.08454594,764.7619,807.0696,807.8755,778.46155,873.1502,-0.19879150390625,-0.00482177734375,0.9915771484375,5.36834716796875,-0.575714111328125,4.523468017578125,1,1.0,1.0,1.0,1.0,55.00
2022-11-23 20:14:05.191,0.8592142,-0.1778142,0.0034385587,0.7751477,0.3782568,-0.40784717,-0.18094221,0.4077808,0.6882241,-0.11607851,0.029847248,0.47741693,0.19647625,-0.13529699,-0.12454225,0.37788486,-0.12268595,-0.62854284,-0.4914285,-0.08454594,811.0989,806.26373,809.89014,824.3956,929.5604,-0.19879150390625,-0.00482177734375,0.9915771484375,5.36834716796875,-0.575714111328125,4.523468017578125,1,1.0,1.0,1.0,1.0,55.00
2022-11-23 20:14:05.191,0.8592142,-0.1778142,0.0034385587,0.7751477,0.3782568,-0.40784717,-0.18094221,0.4077808,0.6882241,-0.11607851,0.029847248,0.47741693,0.19647625,-0.13529699,-0.12454225,0.37788486,-0.12268595,-0.62854284,-0.4914285,-0.08454594,859.45056,805.8608,811.9048,849.3773,948.9011,-0.19879150390625,-0.00482177734375,0.9915771484375,5.36834716796875,-0.575714111328125,4.523468017578125,1,1.0,1.0,1.0,1.0,55.00
2022-11-23 20:14:05.238,0.8592142,-0.1778142,0.0034385587,0.7751477,0.3782568,-0.40784717,-0.18094221,0.4077808,0.6882241,-0.11607851,0.029847248,0.47741693,0.19647625,-0.13529699,-0.12454225,0.37788486,-0.12268595,-0.62854284,-0.4914285,-0.08454594,820.3663,806.6667,809.89014,811.50183,864.2857,-0.19879150390625,-0.00482177734375,0.9915771484375,5.36834716796875,-0.575714111328125,4.523468017578125,1,1.0,1.0,1.0,1.0,55.00
2022-11-23 20:14:05.238,0.8592142,-0.1778142,0.0034385587,0.7751477,0.3782568,-0.40784717,-0.18094221,0.4077808,0.6882241,-0.11607851,0.029847248,0.47741693,0.19647625,-0.13529699,-0.12454225,0.37788486,-0.12268595,-0.62854284,-0.4914285,-0.08454594,765.56775,807.0696,808.68134,780.87915,736.55676,-0.19879150390625,-0.00482177734375,0.9915771484375,5.36834716796875,-0.575714111328125,4.523468017578125,1,1.0,1.0,1.0,1.0,55.00
2022-11-23 20:14:05.239,0.8592142,-0.1778142,0.0034385587,0.7751477,0.3782568,-0.40784717,-0.18094221,0.4077808,0.6882241,-0.11607851,0.029847248,0.47741693,0.19647625,-0.13529699,-0.12454225,0.37788486,-0.12268595,-0.62854284,-0.4914285,-0.08454594,788.5348,806.6667,808.2784,801.4286,788.5348,-0.19879150390625,-0.00482177734375,0.9915771484375,5.36834716796875,-0.575714111328125,4.523468017578125,1,1.0,1.0,1.0,1.0,55.00
2022-11-23 20:14:05.239,0.8592142,-0.1778142,0.0034385587,0.7751477,0.3782568,-0.40784717,-0.18094221,0.4077808,0.6882241,-0.11607851,0.029847248,0.47741693,0.19647625,-0.13529699,-0.12454225,0.37788486,-0.12268595,-0.62854284,-0.4914285,-0.08454594,847.76556,806.6667,806.6667,834.87177,861.06226,-0.19879150390625,-0.00482177734375,0.9915771484375,5.36834716796875,-0.575714111328125,4.523468017578125,1,1.0,1.0,1.0,1.0,55.00
2022-11-23 20:14:05.239,0.8592142,-0.1778142,0.0034385587,0.7751477,0.3782568,-0.40784717,-0.18094221,0.4077808,0.6882241,-0.11607851,0.029847248,0.47741693,0.19647625,-0.13529699,-0.12454225,0.37788486,-0.12268595,-0.62854284,-0.4914285,-0.08454594,838.49817,807.0696,809.89014,820.7692,846.1539,-0.19879150390625,-0.00482177734375,0.9915771484375,5.36834716796875,-0.575714111328125,4.523468017578125,1,1.0,1.0,1.0,1.0,55.00
2022-11-23 20:14:05.239,0.8592142,-0.1778142,0.0034385587,0.7751477,0.3782568,-0.40784717,-0.18094221,0.4077808,0.6882241,-0.11607851,0.029847248,0.47741693,0.19647625,-0.13529699,-0.12454225,0.37788486,-0.12268595,-0.62854284,-0.4914285,-0.08454594,774.0293,807.0696,810.696,788.5348,906.1905,-0.19879150390625,-0.00482177734375,0.9915771484375,5.36834716796875,-0.575714111328125,4.523468017578125,1,1.0,1.0,1.0,1.0,55.00
2022-11-23 20:14:05.239,0.8592142,-0.1778142,0.0034385587,0.7751477,0.3782568,-0.40784717,-0.18094221,0.4077808,0.6882241,-0.11607851,0.029847248,0.47741693,0.19647625,-0.13529699,-0.12454225,0.37788486,-0.12268595,-0.62854284,-0.4914285,-0.08454594,778.0586,806.26373,808.68134,799.011,840.9158,-0.19879150390625,-0.00482177734375,0.9915771484375,5.36834716796875,-0.575714111328125,4.523468017578125,1,1.0,1.0,1.0,1.0,55.00
2022-11-23 20:14:05.240,0.8592142,-0.1778142,0.0034385587,0.7751477,0.3782568,-0.40784717,-0.18094221,0.4077808,0.6882241,-0.11607851,0.029847248,0.47741693,0.19647625,-0.13529699,-0.12454225,0.37788486,-0.12268595,-0.62854284,-0.4914285,-0.08454594,840.9158,807.47253,808.2784,838.9011,781.685,-0.19879150390625,-0.00482177734375,0.9915771484375,5.36834716796875,-0.575714111328125,4.523468017578125,1,1.0,1.0,1.0,1.0,55.00
2022-11-23 20:14:05.240,0.8592142,-0.1778142,0.0034385587,0.7751477,0.3782568,-0.40784717,-0.18094221,0.4077808,0.6882241,-0.11607851,0.029847248,0.47741693,0.19647625,-0.13529699,-0.12454225,0.37788486,-0.12268595,-0.62854284,-0.4914285,-0.08454594,839.707,808.2784,810.293,835.6777,834.0659,-0.19879150390625,-0.00482177734375,0.9915771484375,5.36834716796875,-0.575714111328125,4.523468017578125,1,1.0,1.0,1.0,1.0,55.00
2022-11-23 20:14:05.240,0.8592142,-0.1778142,0.0034385587,0.7751477,0.3782568,-0.40784717,-0.18094221,0.4077808,0.6882241,-0.11607851,0.029847248,0.47741693,0.19647625,-0.13529699,-0.12454225,0.37788486,-0.12268595,-0.62854284,-0.4914285,-0.08454594,782.8938,808.2784,811.0989,795.78754,877.1795,-0.19879150390625,-0.00482177734375,0.9915771484375,5.36834716796875,-0.575714111328125,4.523468017578125,1,1.0,1.0,1.0,1.0,55.00
2022-11-23 20:14:05.240,0.8592142,-0.1778142,0.0034385587,0.7751477,0.3782568,-0.40784717,-0.18094221,0.4077808,0.6882241,-0.11607851,0.029847248,0.47741693,0.19647625,-0.13529699,-0.12454225,0.37788486,-0.12268595,-0.62854284,-0.4914285,-0.08454594,767.5824,809.0842,811.9048,784.90845,762.3443,-0.19879150390625,-0.00482177734375,0.9915771484375,5.36834716796875,-0.575714111328125,4.523468017578125,1,1.0,1.0,1.0,1.0,55.00
2022-11-23 20:14:05.240,0.8592142,-0.1778142,0.0034385587,0.7751477,0.3782568,-0.40784717,-0.18094221,0.4077808,0.6882241,-0.11607851,0.029847248,0.47741693,0.19647625,-0.13529699,-0.12454225,0.37788486,-0.12268595,-0.62854284,-0.4914285,-0.08454594,819.15753,807.8755,814.7253,831.6484,708.3516,-0.19879150390625,-0.00482177734375,0.9915771484375,5.36834716796875,-0.575714111328125,4.523468017578125,1,1.0,1.0,1.0,1.0,55.00
2022-11-23 20:14:05.264,0.8592142,-0.1778142,0.0034385587,0.7751477,0.3782568,-0.40784717,-0.18094221,0.4077808,0.6882241,-0.11607851,0.029847248,0.47741693,0.19647625,-0.13529699,-0.12454225,0.37788486,-0.12268595,-0.62854284,-0.4914285,-0.08454594,846.9597,809.0842,808.68134,842.1245,840.9158,-0.22412109375,-0.00628662109375,0.98834228515625,4.837493896484375,1.772003173828125,6.392669677734375,1,1.0,1.0,1.0,1.0,55.00
2022-11-23 20:14:05.264,0.85038304,-0.1945893,0.007687188,0.7456965,0.3925493,-0.42271015,-0.19877863,0.37233147,0.6882241,-0.08296504,0.070211574,0.5160681,0.21058981,-0.15423714,-0.1329697,0.37416825,-0.15711626,-0.6629098,-0.49780625,-0.08602833,794.9817,806.6667,803.0403,788.93774,802.23444,-0.22412109375,-0.00628662109375,0.98834228515625,4.837493896484375,1.772003173828125,6.392669677734375,1,1.0,1.0,1.0,1.0,55.00
2022-11-23 20:14:05.265,0.85038304,-0.1945893,0.007687188,0.7456965,0.3925493,-0.42271015,-0.19877863,0.37233147,0.6882241,-0.08296504,0.070211574,0.5160681,0.21058981,-0.15423714,-0.1329697,0.37416825,-0.15711626,-0.6629098,-0.49780625,-0.08602833,759.92676,806.26373,803.8461,768.7912,588.68134,-0.22412109375,-0.00628662109375,0.98834228515625,4.837493896484375,1.772003173828125,6.392669677734375,1,1.0,1.0,1.0,1.0,55.00
2022-11-23 20:14:05.265,0.85038304,-0.1945893,0.007687188,0.7456965,0.3925493,-0.42271015,-0.19877863,0.37233147,0.6882241,-0.08296504,0.070211574,0.5160681,0.21058981,-0.15423714,-0.1329697,0.37416825,-0.15711626,-0.6629098,-0.49780625,-0.08602833,804.65204,807.8755,806.6667,806.6667,644.68866,-0.22412109375,-0.00628662109375,0.98834228515625,4.837493896484375,1.772003173828125,6.392669677734375,1,1.0,1.0,1.0,1.0,55.00
2022-11-23 20:14:05.266,0.85038304,-0.1945893,0.007687188,0.7456965,0.3925493,-0.42271015,-0.19877863,0.37233147,0.6882241,-0.08296504,0.070211574,0.5160681,0.21058981,-0.15423714,-0.1329697,0.37416825,-0.15711626,-0.6629098,-0.49780625,-0.08602833,851.79486,809.89014,803.8461,833.663,861.4652,-0.22412109375,-0.00628662109375,0.98834228515625,4.837493896484375,1.772003173828125,6.392669677734375,1,1.0,1.0,1.0,1.0,55.00
2022-11-23 20:14:05.266,0.85038304,-0.1945893,0.007687188,0.7456965,0.3925493,-0.42271015,-0.19877863,0.37233147,0.6882241,-0.08296504,0.070211574,0.5160681,0.21058981,-0.15423714,-0.1329697,0.37416825,-0.15711626,-0.6629098,-0.49780625,-0.08602833,815.9341,808.2784,804.2491,805.8608,837.28937,-0.22412109375,-0.00628662109375,0.98834228515625,4.837493896484375,1.772003173828125,6.392669677734375,1,1.0,1.0,1.0,1.0,55.00
2022-11-23 20:14:05.266,0.85038304,-0.1945893,0.007687188,0.7456965,0.3925493,-0.42271015,-0.19877863,0.37233147,0.6882241,-0.08296504,0.070211574,0.5160681,0.21058981,-0.15423714,-0.1329697,0.37416825,-0.15711626,-0.6629098,-0.49780625,-0.08602833,752.27106,803.8461,805.8608,773.22345,729.304,-0.22412109375,-0.00628662109375,0.98834228515625,4.837493896484375,1.772003173828125,6.392669677734375,1,1.0,1.0,1.0,1.0,55.00
2022-11-23 20:14:05.266,0.85038304,-0.1945893,0.007687188,0.7456965,0.3925493,-0.42271015,-0.19877863,0.37233147,0.6882241,-0.08296504,0.070211574,0.5160681,0.21058981,-0.15423714,-0.1329697,0.37416825,-0.15711626,-0.6629098,-0.49780625,-0.08602833,774.0293,802.23444,801.02563,796.1905,814.7253,-0.22412109375,-0.00628662109375,0.98834228515625,4.837493896484375,1.772003173828125,6.392669677734375,1,1.0,1.0,1.0,1.0,55.00
2022-11-23 20:14:05.266,0.85038304,-0.1945893,0.007687188,0.7456965,0.3925493,-0.42271015,-0.19877863,0.37233147,0.6882241,-0.08296504,0.070211574,0.5160681,0.21058981,-0.15423714,-0.1329697,0.37416825,-0.15711626,-0.6629098,-0.49780625,-0.08602833,829.2308,801.8315,801.4286,833.663,1166.0806,-0.22412109375,-0.00628662109375,0.98834228515625,4.837493896484375,1.772003173828125,6.392669677734375,1,1.0,1.0,1.0,1.0,55.00
2022-11-23 20:14:05.267,0.85038304,-0.1945893,0.007687188,0.7456965,0.3925493,-0.42271015,-0.19877863,0.37233147,0.6882241,-0.08296504,0.070211574,0.5160681,0.21058981,-0.15423714,-0.1329697,0.37416825,-0.15711626,-0.6629098,-0.49780625,-0.08602833,822.381,802.6374,800.6227,823.1868,1331.6849,-0.22412109375,-0.00628662109375,0.98834228515625,4.837493896484375,1.772003173828125,6.392669677734375,1,1.0,1.0,1.0,1.0,55.00
2022-11-23 20:14:05.267,0.85038304,-0.1945893,0.007687188,0.7456965,0.3925493,-0.42271015,-0.19877863,0.37233147,0.6882241,-0.08296504,0.070211574,0.5160681,0.21058981,-0.15423714,-0.1329697,0.37416825,-0.15711626,-0.6629098,-0.49780625,-0.08602833,770.40295,803.44324,801.8315,784.90845,908.20514,-0.22412109375,-0.00628662109375,0.98834228515625,4.837493896484375,1.772003173828125,6.392669677734375,1,1.0,1.0,1.0,1.0,55.00
2022-11-23 20:14:05.267,0.85038304,-0.1945893,0.007687188,0.7456965,0.3925493,-0.42271015,-0.19877863,0.37233147,0.6882241,-0.08296504,0.070211574,0.5160681,0.21058981,-0.15423714,-0.1329697,0.37416825,-0.15711626,-0.6629098,-0.49780625,-0.08602833,770.0,805.05493,802.6374,788.93774,683.7729,-0.22412109375,-0.00628662109375,0.98834228515625,4.837493896484375,1.772003173828125,6.392669677734375,1,1.0,1.0,1.0,1.0,55.00
2022-11-23 20:14:05.314,0.85038304,-0.1945893,0.007687188,0.7456965,0.3925493,-0.42271015,-0.19877863,0.37233147,0.6882241,-0.08296504,0.070211574,0.5160681,0.21058981,-0.15423714,-0.1329697,0.37416825,-0.15711626,-0.6629098,-0.49780625,-0.08602833,827.619,810.696,804.2491,826.4103,834.0659,-0.2203369140625,-0.007080078125,0.99627685546875,2.4822998046875,1.099090576171875,4.2169189453125,1,1.0,1.0,1.0,1.0,55.00
2022-11-23 20:14:05.315,0.85038304,-0.1945893,0.007687188,0.7456965,0.3925493,-0.42271015,-0.19877863,0.37233147,0.6882241,-0.08296504,0.070211574,0.5160681,0.21058981,-0.15423714,-0.1329697,0.37416825,-0.15711626,-0.6629098,-0.49780625,-0.08602833,840.5128,811.0989,808.68134,832.4542,927.9487,-0.2203369140625,-0.007080078125,0.99627685546875,2.4822998046875,1.099090576171875,4.2169189453125,1,1.0,1.0,1.0,1.0,55.00
2022-11-23 20:14:05.315,0.85038304,-0.1945893,0.007687188,0.7456965,0.3925493,-0.42271015,-0.19877863,0.37233147,0.6882241,-0.08296504,0.070211574,0.5160681,0.21058981,-0.15423714,-0.1329697,0.37416825,-0.15711626,-0.6629098,-0.49780625,-0.08602833,791.3553,811.0989,805.4579,786.9231,799.81683,-0.2203369140625,-0.007080078125,0.99627685546875,2.4822998046875,1.099090576171875,4.2169189453125,1,1.0,1.0,1.0,1.0,55.00
2022-11-23 20:14:05.315,0.85038304,-0.1945893,0.007687188,0.7456965,0.3925493,-0.42271015,-0.19877863,0.37233147,0.6882241,-0.08296504,0.070211574,0.5160681,0.21058981,-0.15423714,-0.1329697,0.37416825,-0.15711626,-0.6629098,-0.49780625,-0.08602833,770.40295,809.0842,802.23444,774.83514,649.5238,-0.2203369140625,-0.007080078125,0.99627685546875,2.4822998046875,1.099090576171875,4.2169189453125,1,1.0,1.0,1.0,1.0,55.00
2022-11-23 20:14:05.316,0.85038304,-0.1945893,0.007687188,0.7456965,0.3925493,-0.42271015,-0.19877863,0.37233147,0.6882241,-0.08296504,0.070211574,0.5160681,0.21058981,-0.15423714,-0.1329697,0.37416825,-0.15711626,-0.6629098,-0.49780625,-0.08602833,805.8608,805.4579,802.23444,814.7253,713.5897,-0.2203369140625,-0.007080078125,0.99627685546875,2.4822998046875,1.099090576171875,4.2169189453125,1,1.0,1.0,1.0,1.0,55.00
2022-11-23 20:14:05.316,0.85038304,-0.1945893,0.007687188,0.7456965,0.3925493,-0.42271015,-0.19877863,0.37233147,0.6882241,-0.08296504,0.070211574,0.5160681,0.21058981,-0.15423714,-0.1329697,0.37416825,-0.15711626,-0.6629098,-0.49780625,-0.08602833,835.6777,809.0842,804.65204,834.4689,808.2784,-0.2203369140625,-0.007080078125,0.99627685546875,2.4822998046875,1.099090576171875,4.2169189453125,1,1.0,1.0,1.0,1.0,55.00
2022-11-23 20:14:05.316,0.85038304,-0.1945893,0.007687188,0.7456965,0.3925493,-0.42271015,-0.19877863,0.37233147,0.6882241,-0.08296504,0.070211574,0.5160681,0.21058981,-0.15423714,-0.1329697,0.37416825,-0.15711626,-0.6629098,-0.49780625,-0.08602833,803.44324,813.5165,803.0403,803.44324,720.0366,-0.2203369140625,-0.007080078125,0.99627685546875,2.4822998046875,1.099090576171875,4.2169189453125,1,1.0,1.0,1.0,1.0,55.00
2022-11-23 20:14:05.316,0.85038304,-0.1945893,0.007687188,0.7456965,0.3925493,-0.42271015,-0.19877863,0.37233147,0.6882241,-0.08296504,0.070211574,0.5160681,0.21058981,-0.15423714,-0.1329697,0.37416825,-0.15711626,-0.6629098,-0.49780625,-0.08602833,764.35895,816.337,805.4579,776.4469,567.326,-0.2203369140625,-0.007080078125,0.99627685546875,2.4822998046875,1.099090576171875,4.2169189453125,1,1.0,1.0,1.0,1.0,55.00
2022-11-23 20:14:05.317,0.85038304,-0.1945893,0.007687188,0.7456965,0.3925493,-0.42271015,-0.19877863,0.37233147,0.6882241,-0.08296504,0.070211574,0.5160681,0.21058981,-0.15423714,-0.1329697,0.37416825,-0.15711626,-0.6629098,-0.49780625,-0.08602833,794.57874,816.7399,805.05493,805.05493,795.38464,-0.2203369140625,-0.007080078125,0.99627685546875,2.4822998046875,1.099090576171875,4.2169189453125,1,1.0,1.0,1.0,1.0,55.00
2022-11-23 20:14:05.317,0.85038304,-0.1945893,0.007687188,0.7456965,0.3925493,-0.42271015,-0.19877863,0.37233147,0.6882241,-0.08296504,0.070211574,0.5160681,0.21058981,-0.15423714,-0.1329697,0.37416825,-0.15711626,-0.6629098,-0.49780625,-0.08602833,839.304,811.0989,804.2491,832.4542,898.5348,-0.2203369140625,-0.007080078125,0.99627685546875,2.4822998046875,1.099090576171875,4.2169189453125,1,1.0,1.0,1.0,1.0,55.00
2022-11-23 20:14:05.317,0.85038304,-0.1945893,0.007687188,0.7456965,0.3925493,-0.42271015,-0.19877863,0.37233147,0.6882241,-0.08296504,0.070211574,0.5160681,0.21058981,-0.15423714,-0.1329697,0.37416825,-0.15711626,-0.6629098,-0.49780625,-0.08602833,816.7399,810.293,799.41394,796.1905,757.50916,-0.2203369140625,-0.007080078125,0.99627685546875,2.4822998046875,1.099090576171875,4.2169189453125,1,1.0,1.0,1.0,1.0,55.00
2022-11-23 20:14:05.318,0.85038304,-0.1945893,0.007687188,0.7456965,0.3925493,-0.42271015,-0.19877863,0.37233147,0.6882241,-0.08296504,0.070211574,0.5160681,0.21058981,-0.15423714,-0.1329697,0.37416825,-0.15711626,-0.6629098,-0.49780625,-0.08602833,778.86444,817.9487,790.54944,764.35895,608.4249,-0.2203369140625,-0.007080078125,0.99627685546875,2.4822998046875,1.099090576171875,4.2169189453125,1,1.0,1.0,1.0,1.0,55.00
2022-11-23 20:14:05.364,0.85038304,-0.1945893,0.007687188,0.7456965,0.3925493,-0.42271015,-0.19877863,0.37233147,0.6882241,-0.08296504,0.070211574,0.5160681,0.21058981,-0.15423714,-0.1329697,0.37416825,-0.15711626,-0.6629098,-0.49780625,-0.08602833,806.6667,808.68134,796.5934,805.4579,657.5824,-0.2093505859375,-0.00372314453125,1.00396728515625,1.652374267578125,-1.203765869140625,6.74407958984375,1,1.0,1.0,1.0,1.0,55.00
2022-11-23 20:14:05.365,0.85038304,-0.1945893,0.007687188,0.7456965,0.3925493,-0.42271015,-0.19877863,0.37233147,0.6882241,-0.08296504,0.070211574,0.5160681,0.21058981,-0.15423714,-0.1329697,0.37416825,-0.15711626,-0.6629098,-0.49780625,-0.08602833,844.94507,796.99634,808.2784,843.3333,790.54944,-0.2093505859375,-0.00372314453125,1.00396728515625,1.652374267578125,-1.203765869140625,6.74407958984375,1,1.0,1.0,1.0,1.0,55.00
2022-11-23 20:14:05.365,0.85038304,-0.1945893,0.007687188,0.7456965,0.3925493,-0.42271015,-0.19877863,0.37233147,0.6882241,-0.08296504,0.070211574,0.5160681,0.21058981,-0.15423714,-0.1329697,0.37416825,-0.15711626,-0.6629098,-0.49780625,-0.08602833,813.1135,797.8022,813.91943,808.68134,794.17584,-0.2093505859375,-0.00372314453125,1.00396728515625,1.652374267578125,-1.203765869140625,6.74407958984375,1,1.0,1.0,1.0,1.0,55.00
2022-11-23 20:14:05.366,0.8410533,-0.21306315,0.0075950813,0.70172334,0.39580062,-0.43453485,-0.20611794,0.30721793,0.6882241,-0.063101254,0.10954405,0.59839165,0.21518973,-0.17033744,-0.13493234,0.37067425,-0.19548088,-0.69132435,-0.5046243,-0.08045043,747.4359,798.60803,818.7546,758.315,724.0659,-0.2093505859375,-0.00372314453125,1.00396728515625,1.652374267578125,-1.203765869140625,6.74407958984375,1,1.0,1.0,1.0,1.0,55.00
2022-11-23 20:14:05.367,0.8410533,-0.21306315,0.0075950813,0.70172334,0.39580062,-0.43453485,-0.20611794,0.30721793,0.6882241,-0.063101254,0.10954405,0.59839165,0.21518973,-0.17033744,-0.13493234,0.37067425,-0.19548088,-0.69132435,-0.5046243,-0.08045043,741.39197,795.38464,815.5311,757.9121,653.95605,-0.2093505859375,-0.00372314453125,1.00396728515625,1.652374267578125,-1.203765869140625,6.74407958984375,1,1.0,1.0,1.0,1.0,55.00
2022-11-23 20:14:05.367,0.8410533,-0.21306315,0.0075950813,0.70172334,0.39580062,-0.43453485,-0.20611794,0.30721793,0.6882241,-0.063101254,0.10954405,0.59839165,0.21518973,-0.17033744,-0.13493234,0.37067425,-0.19548088,-0.69132435,-0.5046243,-0.08045043,782.0879,783.2967,815.12823,789.7436,789.34064,-0.2093505859375,-0.00372314453125,1.00396728515625,1.652374267578125,-1.203765869140625,6.74407958984375,1,1.0,1.0,1.0,1.0,55.00
2022-11-23 20:14:05.367,0.8410533,-0.21306315,0.0075950813,0.70172334,0.39580062,-0.43453485,-0.20611794,0.30721793,0.6882241,-0.063101254,0.10954405,0.59839165,0.21518973,-0.17033744,-0.13493234,0.37067425,-0.19548088,-0.69132435,-0.5046243,-0.08045043,786.1172,782.8938,821.5751,783.69965,843.73627,-0.2093505859375,-0.00372314453125,1.00396728515625,1.652374267578125,-1.203765869140625,6.74407958984375,1,1.0,1.0,1.0,1.0,55.00
2022-11-23 20:14:05.368,0.8410533,-0.21306315,0.0075950813,0.70172334,0.39580062,-0.43453485,-0.20611794,0.30721793,0.6882241,-0.063101254,0.10954405,0.59839165,0.21518973,-0.17033744,-0.13493234,0.37067425,-0.19548088,-0.69132435,-0.5046243,-0.08045043,730.9158,786.52014,826.8132,738.97437,833.663,-0.2093505859375,-0.00372314453125,1.00396728515625,1.652374267578125,-1.203765869140625,6.74407958984375,1,1.0,1.0,1.0,1.0,55.00
2022-11-23 20:14:05.368,0.8410533,-0.21306315,0.0075950813,0.70172334,0.39580062,-0.43453485,-0.20611794,0.30721793,0.6882241,-0.063101254,0.10954405,0.59839165,0.21518973,-0.17033744,-0.13493234,0.37067425,-0.19548088,-0.69132435,-0.5046243,-0.08045043,681.3553,781.685,830.0366,713.5897,853.4066,-0.2093505859375,-0.00372314453125,1.00396728515625,1.652374267578125,-1.203765869140625,6.74407958984375,1,1.0,1.0,1.0,1.0,55.00
2022-11-23 20:14:05.368,0.8410533,-0.21306315,0.0075950813,0.70172334,0.39580062,-0.43453485,-0.20611794,0.30721793,0.6882241,-0.063101254,0.10954405,0.59839165,0.21518973,-0.17033744,-0.13493234,0.37067425,-0.19548088,-0.69132435,-0.5046243,-0.08045043,720.4396,778.86444,832.0513,742.6007,761.53845,-0.2093505859375,-0.00372314453125,1.00396728515625,1.652374267578125,-1.203765869140625,6.74407958984375,1,1.0,1.0,1.0,1.0,55.00
2022-11-23 20:14:05.368,0.8410533,-0.21306315,0.0075950813,0.70172334,0.39580062,-0.43453485,-0.20611794,0.30721793,0.6882241,-0.063101254,0.10954405,0.59839165,0.21518973,-0.17033744,-0.13493234,0.37067425,-0.19548088,-0.69132435,-0.5046243,-0.08045043,764.35895,777.25275,836.4835,771.2088,833.2601,-0.2093505859375,-0.00372314453125,1.00396728515625,1.652374267578125,-1.203765869140625,6.74407958984375,1,1.0,1.0,1.0,1.0,55.00
2022-11-23 20:14:05.369,0.8410533,-0.21306315,0.0075950813,0.70172334,0.39580062,-0.43453485,-0.20611794,0.30721793,0.6882241,-0.063101254,0.10954405,0.59839165,0.21518973,-0.17033744,-0.13493234,0.37067425,-0.19548088,-0.69132435,-0.5046243,-0.08045043,722.8571,773.22345,843.3333,746.2271,790.9524,-0.2093505859375,-0.00372314453125,1.00396728515625,1.652374267578125,-1.203765869140625,6.74407958984375,1,1.0,1.0,1.0,1.0,55.00
2022-11-23 20:14:05.414,0.8410533,-0.21306315,0.0075950813,0.70172334,0.39580062,-0.43453485,-0.20611794,0.30721793,0.6882241,-0.063101254,0.10954405,0.59839165,0.21518973,-0.17033744,-0.13493234,0.37067425,-0.19548088,-0.69132435,-0.5046243,-0.08045043,669.67035,770.80585,844.1392,712.381,675.7143,-0.20947265625,-0.00408935546875,1.00640869140625,-0.059814453125,0.67291259765625,9.79461669921875,1,1.0,1.0,1.0,1.0,55.00
2022-11-23 20:14:05.415,0.8410533,-0.21306315,0.0075950813,0.70172334,0.39580062,-0.43453485,-0.20611794,0.30721793,0.6882241,-0.063101254,0.10954405,0.59839165,0.21518973,-0.17033744,-0.13493234,0.37067425,-0.19548088,-0.69132435,-0.5046243,-0.08045043,695.8608,769.19415,844.5421,721.2454,825.2015,-0.20947265625,-0.00408935546875,1.00640869140625,-0.059814453125,0.67291259765625,9.79461669921875,1,1.0,1.0,1.0,1.0,55.00
2022-11-23 20:14:05.415,0.8410533,-0.21306315,0.0075950813,0.70172334,0.39580062,-0.43453485,-0.20611794,0.30721793,0.6882241,-0.063101254,0.10954405,0.59839165,0.21518973,-0.17033744,-0.13493234,0.37067425,-0.19548088,-0.69132435,-0.5046243,-0.08045043,748.6447,765.9707,855.0183,767.5824,971.06226,-0.20947265625,-0.00408935546875,1.00640869140625,-0.059814453125,0.67291259765625,9.79461669921875,1,1.0,1.0,1.0,1.0,55.00
2022-11-23 20:14:05.415,0.8410533,-0.21306315,0.0075950813,0.70172334,0.39580062,-0.43453485,-0.20611794,0.30721793,0.6882241,-0.063101254,0.10954405,0.59839165,0.21518973,-0.17033744,-0.13493234,0.37067425,-0.19548088,-0.69132435,-0.5046243,-0.08045043,732.9304,763.95605,860.65936,761.13556,952.52747,-0.20947265625,-0.00408935546875,1.00640869140625,-0.059814453125,0.67291259765625,9.79461669921875,1,1.0,1.0,1.0,1.0,55.00
2022-11-23 20:14:05.415,0.8410533,-0.21306315,0.0075950813,0.70172334,0.39580062,-0.43453485,-0.20611794,0.30721793,0.6882241,-0.063101254,0.10954405,0.59839165,0.21518973,-0.17033744,-0.13493234,0.37067425,-0.19548088,-0.69132435,-0.5046243,-0.08045043,689.41394,757.50916,862.27106,729.304,672.8938,-0.20947265625,-0.00408935546875,1.00640869140625,-0.059814453125,0.67291259765625,9.79461669921875,1,1.0,1.0,1.0,1.0,55.00
2022-11-23 20:14:05.416,0.8410533,-0.21306315,0.0075950813,0.70172334,0.39580062,-0.43453485,-0.20611794,0.30721793,0.6882241,-0.063101254,0.10954405,0.59839165,0.21518973,-0.17033744,-0.13493234,0.37067425,-0.19548088,-0.69132435,-0.5046243,-0.08045043,687.8022,755.89746,859.85345,740.989,601.1722,-0.20947265625,-0.00408935546875,1.00640869140625,-0.059814453125,0.67291259765625,9.79461669921875,1,1.0,1.0,1.0,1.0,55.00
2022-11-23 20:14:05.416,0.8410533,-0.21306315,0.0075950813,0.70172334,0.39580062,-0.43453485,-0.20611794,0.30721793,0.6882241,-0.063101254,0.10954405,0.59839165,0.21518973,-0.17033744,-0.13493234,0.37067425,-0.19548088,-0.69132435,-0.5046243,-0.08045043,740.989,759.92676,855.82416,782.8938,904.9817,-0.20947265625,-0.00408935546875,1.00640869140625,-0.059814453125,0.67291259765625,9.79461669921875,1,1.0,1.0,1.0,1.0,55.00
2022-11-23 20:14:05.416,0.8410533,-0.21306315,0.0075950813,0.70172334,0.39580062,-0.43453485,-0.20611794,0.30721793,0.6882241,-0.063101254,0.10954405,0.59839165,0.21518973,-0.17033744,-0.13493234,0.37067425,-0.19548088,-0.69132435,-0.5046243,-0.08045043,761.9414,759.5238,857.03296,798.20514,1085.4945,-0.20947265625,-0.00408935546875,1.00640869140625,-0.059814453125,0.67291259765625,9.79461669921875,1,1.0,1.0,1.0,1.0,55.00
2022-11-23 20:14:05.416,0.8410533,-0.21306315,0.0075950813,0.70172334,0.39580062,-0.43453485,-0.20611794,0.30721793,0.6882241,-0.063101254,0.10954405,0.59839165,0.21518973,-0.17033744,-0.13493234,0.37067425,-0.19548088,-0.69132435,-0.5046243,-0.08045043,707.9487,759.5238,859.85345,752.674,805.05493,-0.20947265625,-0.00408935546875,1.00640869140625,-0.059814453125,0.67291259765625,9.79461669921875,1,1.0,1.0,1.0,1.0,55.00
2022-11-23 20:14:05.417,0.8410533,-0.21306315,0.0075950813,0.70172334,0.39580062,-0.43453485,-0.20611794,0.30721793,0.6882241,-0.063101254,0.10954405,0.59839165,0.21518973,-0.17033744,-0.13493234,0.37067425,-0.19548088,-0.69132435,-0.5046243,-0.08045043,700.696,757.50916,861.4652,748.6447,613.2601,-0.20947265625,-0.00408935546875,1.00640869140625,-0.059814453125,0.67291259765625,9.79461669921875,1,1.0,1.0,1.0,1.0,55.00
2022-11-23 20:14:05.417,0.8410533,-0.21306315,0.0075950813,0.70172334,0.39580062,-0.43453485,-0.20611794,0.30721793,0.6882241,-0.063101254,0.10954405,0.59839165,0.21518973,-0.17033744,-0.13493234,0.37067425,-0.19548088,-0.69132435,-0.5046243,-0.08045043,753.47986,760.7326,850.989,787.72894,770.80585,-0.20947265625,-0.00408935546875,1.00640869140625,-0.059814453125,0.67291259765625,9.79461669921875,1,1.0,1.0,1.0,1.0,55.00
2022-11-23 20:14:05.417,0.8410533,-0.21306315,0.0075950813,0.70172334,0.39580062,-0.43453485,-0.20611794,0.30721793,0.6882241,-0.063101254,0.10954405,0.59839165,0.21518973,-0.17033744,-0.13493234,0.37067425,-0.19548088,-0.69132435,-0.5046243,-0.08045043,782.0879,764.7619,845.34796,794.9817,904.17584,-0.20947265625,-0.00408935546875,1.00640869140625,-0.059814453125,0.67291259765625,9.79461669921875,1,1.0,1.0,1.0,1.0,55.00
2022-11-23 20:14:05.464,0.8410533,-0.21306315,0.0075950813,0.70172334,0.39580062,-0.43453485,-0.20611794,0.30721793,0.6882241,-0.063101254,0.10954405,0.59839165,0.21518973,-0.17033744,-0.13493234,0.37067425,-0.19548088,-0.69132435,-0.5046243,-0.08045043,751.4652,764.7619,844.5421,772.4176,775.64105,-0.20947265625,-0.00408935546875,1.00640869140625,-0.059814453125,0.67291259765625,9.79461669921875,1,1.0,1.0,1.0,1.0,55.00
2022-11-23 20:14:05.464,0.8410533,-0.21306315,0.0075950813,0.70172334,0.39580062,-0.43453485,-0.20611794,0.30721793,0.6882241,-0.063101254,0.10954405,0.59839165,0.21518973,-0.17033744,-0.13493234,0.37067425,-0.19548088,-0.69132435,-0.5046243,-0.08045043,727.28937,772.01465,842.52747,765.9707,603.1868,-0.20947265625,-0.00408935546875,1.00640869140625,-0.059814453125,0.67291259765625,9.79461669921875,1,1.0,1.0,1.0,1.0,55.00
2022-11-23 20:14:05.464,0.8410533,-0.21306315,0.0075950813,0.70172334,0.39580062,-0.43453485,-0.20611794,0.30721793,0.6882241,-0.063101254,0.10954405,0.59839165,0.21518973,-0.17033744,-0.13493234,0.37067425,-0.19548088,-0.69132435,-0.5046243,-0.08045043,767.1795,776.8498,835.2747,798.20514,640.2564,-0.20947265625,-0.00408935546875,1.00640869140625,-0.059814453125,0.67291259765625,9.79461669921875,1,1.0,1.0,1.0,1.0,55.00
2022-11-23 20:14:05.465,0.8410533,-0.21306315,0.0075950813,0.70172334,0.39580062,-0.43453485,-0.20611794,0.30721793,0.6882241,-0.063101254,0.10954405,0.59839165,0.21518973,-0.17033744,-0.13493234,0.37067425,-0.19548088,-0.69132435,-0.5046243,-0.08045043,816.337,774.0293,833.663,830.84247,901.75824,-0.20947265625,-0.00408935546875,1.00640869140625,-0.059814453125,0.67291259765625,9.79461669921875,1,1.0,1.0,1.0,1.0,55.00
2022-11-23 20:14:05.465,0.8410533,-0.21306315,0.0075950813,0.70172334,0.39580062,-0.43453485,-0.20611794,0.30721793,0.6882241,-0.063101254,0.10954405,0.59839165,0.21518973,-0.17033744,-0.13493234,0.37067425,-0.19548088,-0.69132435,-0.5046243,-0.08045043,801.8315,776.4469,837.28937,814.3223,974.2857,-0.20947265625,-0.00408935546875,1.00640869140625,-0.059814453125,0.67291259765625,9.79461669921875,1,1.0,1.0,1.0,1.0,55.00
2022-11-23 20:14:05.465,0.8490135,-0.19797441,0.03156567,0.6817948,0.39093223,-0.41348428,-0.1733398,0.21895869,0.67769414,0.010825581,0.17712884,0.5940159,0.21642579,-0.18703555,-0.13358799,0.37651125,-0.21362402,-0.7058266,-0.5152874,-0.078234926,758.315,779.2674,829.6337,790.14655,689.41394,-0.20947265625,-0.00408935546875,1.00640869140625,-0.059814453125,0.67291259765625,9.79461669921875,1,1.0,1.0,1.0,1.0,55.00
2022-11-23 20:14:05.466,0.8490135,-0.19797441,0.03156567,0.6817948,0.39093223,-0.41348428,-0.1733398,0.21895869,0.67769414,0.010825581,0.17712884,0.5940159,0.21642579,-0.18703555,-0.13358799,0.37651125,-0.21362402,-0.7058266,-0.5152874,-0.078234926,780.4762,774.43225,823.5897,813.1135,824.7985,-0.20947265625,-0.00408935546875,1.00640869140625,-0.059814453125,0.67291259765625,9.79461669921875,1,1.0,1.0,1.0,1.0,55.00
2022-11-23 20:14:05.466,0.8490135,-0.19797441,0.03156567,0.6817948,0.39093223,-0.41348428,-0.1733398,0.21895869,0.67769414,0.010825581,0.17712884,0.5940159,0.21642579,-0.18703555,-0.13358799,0.37651125,-0.21362402,-0.7058266,-0.5152874,-0.078234926,838.49817,783.2967,824.3956,850.18317,1153.5897,-0.20947265625,-0.00408935546875,1.00640869140625,-0.059814453125,0.67291259765625,9.79461669921875,1,1.0,1.0,1.0,1.0,55.00
2022-11-23 20:14:05.467,0.8490135,-0.19797441,0.03156567,0.6817948,0.39093223,-0.41348428,-0.1733398,0.21895869,0.67769414,0.010825581,0.17712884,0.5940159,0.21642579,-0.18703555,-0.13358799,0.37651125,-0.21362402,-0.7058266,-0.5152874,-0.078234926,823.9927,793.7729,822.7839,839.707,869.12085,-0.20947265625,-0.00408935546875,1.00640869140625,-0.059814453125,0.67291259765625,9.79461669921875,1,1.0,1.0,1.0,1.0,55.00
2022-11-23 20:14:05.467,0.8490135,-0.19797441,0.03156567,0.6817948,0.39093223,-0.41348428,-0.1733398,0.21895869,0.67769414,0.010825581,0.17712884,0.5940159,0.21642579,-0.18703555,-0.13358799,0.37651125,-0.21362402,-0.7058266,-0.5152874,-0.078234926,769.19415,794.9817,818.3516,795.38464,594.7253,-0.20947265625,-0.00408935546875,1.00640869140625,-0.059814453125,0.67291259765625,9.79461669921875,1,1.0,1.0,1.0,1.0,55.00
2022-11-23 20:14:05.467,0.8490135,-0.19797441,0.03156567,0.6817948,0.39093223,-0.41348428,-0.1733398,0.21895869,0.67769414,0.010825581,0.17712884,0.5940159,0.21642579,-0.18703555,-0.13358799,0.37651125,-0.21362402,-0.7058266,-0.5152874,-0.078234926,779.2674,798.60803,817.5458,802.23444,640.65936,-0.20947265625,-0.00408935546875,1.00640869140625,-0.059814453125,0.67291259765625,9.79461669921875,1,1.0,1.0,1.0,1.0,55.00
2022-11-23 20:14:05.467,0.8490135,-0.19797441,0.03156567,0.6817948,0.39093223,-0.41348428,-0.1733398,0.21895869,0.67769414,0.010825581,0.17712884,0.5940159,0.21642579,-0.18703555,-0.13358799,0.37651125,-0.21362402,-0.7058266,-0.5152874,-0.078234926,827.2161,794.9817,815.12823,839.304,805.4579,-0.20947265625,-0.00408935546875,1.00640869140625,-0.059814453125,0.67291259765625,9.79461669921875,1,1.0,1.0,1.0,1.0,55.00
2022-11-23 20:14:05.513,0.8490135,-0.19797441,0.03156567,0.6817948,0.39093223,-0.41348428,-0.1733398,0.21895869,0.67769414,0.010825581,0.17712884,0.5940159,0.21642579,-0.18703555,-0.13358799,0.37651125,-0.21362402,-0.7058266,-0.5152874,-0.078234926,837.6923,792.1612,811.9048,846.1539,850.18317,-0.23394775390625,-0.01556396484375,0.98992919921875,-2.3626708984375,1.951446533203125,12.00775146484375,1,1.0,1.0,1.0,1.0,55.00
2022-11-23 20:14:05.514,0.8490135,-0.19797441,0.03156567,0.6817948,0.39093223,-0.41348428,-0.1733398,0.21895869,0.67769414,0.010825581,0.17712884,0.5940159,0.21642579,-0.18703555,-0.13358799,0.37651125,-0.21362402,-0.7058266,-0.5152874,-0.078234926,793.7729,794.57874,807.8755,811.9048,689.41394,-0.23394775390625,-0.01556396484375,0.98992919921875,-2.3626708984375,1.951446533203125,12.00775146484375,1,1.0,1.0,1.0,1.0,55.00
2022-11-23 20:14:05.514,0.8490135,-0.19797441,0.03156567,0.6817948,0.39093223,-0.41348428,-0.1733398,0.21895869,0.67769414,0.010825581,0.17712884,0.5940159,0.21642579,-0.18703555,-0.13358799,0.37651125,-0.21362402,-0.7058266,-0.5152874,-0.078234926,774.83514,796.5934,809.4872,803.8461,714.7985,-0.23394775390625,-0.01556396484375,0.98992919921875,-2.3626708984375,1.951446533203125,12.00775146484375,1,1.0,1.0,1.0,1.0,55.00
2022-11-23 20:14:05.514,0.8490135,-0.19797441,0.03156567,0.6817948,0.39093223,-0.41348428,-0.1733398,0.21895869,0.67769414,0.010825581,0.17712884,0.5940159,0.21642579,-0.18703555,-0.13358799,0.37651125,-0.21362402,-0.7058266,-0.5152874,-0.078234926,821.1722,796.99634,814.7253,841.31866,901.75824,-0.23394775390625,-0.01556396484375,0.98992919921875,-2.3626708984375,1.951446533203125,12.00775146484375,1,1.0,1.0,1.0,1.0,55.00
2022-11-23 20:14:05.514,0.8490135,-0.19797441,0.03156567,0.6817948,0.39093223,-0.41348428,-0.1733398,0.21895869,0.67769414,0.010825581,0.17712884,0.5940159,0.21642579,-0.18703555,-0.13358799,0.37651125,-0.21362402,-0.7058266,-0.5152874,-0.078234926,849.3773,799.41394,813.1135,850.58606,992.01465,-0.23394775390625,-0.01556396484375,0.98992919921875,-2.3626708984375,1.951446533203125,12.00775146484375,1,1.0,1.0,1.0,1.0,55.00
2022-11-23 20:14:05.515,0.8490135,-0.19797441,0.03156567,0.6817948,0.39093223,-0.41348428,-0.1733398,0.21895869,0.67769414,0.010825581,0.17712884,0.5940159,0.21642579,-0.18703555,-0.13358799,0.37651125,-0.21362402,-0.7058266,-0.5152874,-0.078234926,810.293,804.65204,811.50183,814.3223,1008.5348,-0.23394775390625,-0.01556396484375,0.98992919921875,-2.3626708984375,1.951446533203125,12.00775146484375,1,1.0,1.0,1.0,1.0,55.00
2022-11-23 20:14:05.515,0.8490135,-0.19797441,0.03156567,0.6817948,0.39093223,-0.41348428,-0.1733398,0.21895869,0.67769414,0.010825581,0.17712884,0.5940159,0.21642579,-0.18703555,-0.13358799,0.37651125,-0.21362402,-0.7058266,-0.5152874,-0.078234926,772.01465,803.0403,809.0842,796.5934,987.1795,-0.23394775390625,-0.01556396484375,0.98992919921875,-2.3626708984375,1.951446533203125,12.00775146484375,1,1.0,1.0,1.0,1.0,55.00
2022-11-23 20:14:05.515,0.8490135,-0.19797441,0.03156567,0.6817948,0.39093223,-0.41348428,-0.1733398,0.21895869,0.67769414,0.010825581,0.17712884,0.5940159,0.21642579,-0.18703555,-0.13358799,0.37651125,-0.21362402,-0.7058266,-0.5152874,-0.078234926,801.8315,798.60803,810.293,821.978,879.59705,-0.23394775390625,-0.01556396484375,0.98992919921875,-2.3626708984375,1.951446533203125,12.00775146484375,1,1.0,1.0,1.0,1.0,55.00
2022-11-23 20:14:05.515,0.8490135,-0.19797441,0.03156567,0.6817948,0.39093223,-0.41348428,-0.1733398,0.21895869,0.67769414,0.010825581,0.17712884,0.5940159,0.21642579,-0.18703555,-0.13358799,0.37651125,-0.21362402,-0.7058266,-0.5152874,-0.078234926,850.989,803.8461,810.293,844.1392,842.52747,-0.23394775390625,-0.01556396484375,0.98992919921875,-2.3626708984375,1.951446533203125,12.00775146484375,1,1.0,1.0,1.0,1.0,55.00
2022-11-23 20:14:05.515,0.8490135,-0.19797441,0.03156567,0.6817948,0.39093223,-0.41348428,-0.1733398,0.21895869,0.67769414,0.010825581,0.17712884,0.5940159,0.21642579,-0.18703555,-0.13358799,0.37651125,-0.21362402,-0.7058266,-0.5152874,-0.078234926,828.8278,806.6667,807.8755,824.3956,796.99634,-0.23394775390625,-0.01556396484375,0.98992919921875,-2.3626708984375,1.951446533203125,12.00775146484375,1,1.0,1.0,1.0,1.0,55.00
2022-11-23 20:14:05.516,0.8490135,-0.19797441,0.03156567,0.6817948,0.39093223,-0.41348428,-0.1733398,0.21895869,0.67769414,0.010825581,0.17712884,0.5940159,0.21642579,-0.18703555,-0.13358799,0.37651125,-0.21362402,-0.7058266,-0.5152874,-0.078234926,783.69965,806.26373,808.2784,788.93774,704.7253,-0.23394775390625,-0.01556396484375,0.98992919921875,-2.3626708984375,1.951446533203125,12.00775146484375,1,1.0,1.0,1.0,1.0,55.00
2022-11-23 20:14:05.516,0.8490135,-0.19797441,0.03156567,0.6817948,0.39093223,-0.41348428,-0.1733398,0.21895869,0.67769414,0.010825581,0.17712884,0.5940159,0.21642579,-0.18703555,-0.13358799,0.37651125,-0.21362402,-0.7058266,-0.5152874,-0.078234926,794.57874,803.0403,803.44324,802.6374,618.0952,-0.23394775390625,-0.01556396484375,0.98992919921875,-2.3626708984375,1.951446533203125,12.00775146484375,1,1.0,1.0,1.0,1.0,55.00
2022-11-23 20:14:05.565,0.8490135,-0.19797441,0.03156567,0.6817948,0.39093223,-0.41348428,-0.1733398,0.21895869,0.67769414,0.010825581,0.17712884,0.5940159,0.21642579,-0.18703555,-0.13358799,0.37651125,-0.21362402,-0.7058266,-0.5152874,-0.078234926,840.9158,796.99634,797.3993,840.9158,740.18317,-0.25225830078125,-0.02728271484375,0.9830322265625,-2.071075439453125,0.934600830078125,10.265655517578125,1,1.0,1.0,1.0,1.0,55.00
2022-11-23 20:14:05.565,0.8490135,-0.19797441,0.03156567,0.6817948,0.39093223,-0.41348428,-0.1733398,0.21895869,0.67769414,0.010825581,0.17712884,0.5940159,0.21642579,-0.18703555,-0.13358799,0.37651125,-0.21362402,-0.7058266,-0.5152874,-0.078234926,844.1392,800.6227,803.44324,839.707,797.8022,-0.25225830078125,-0.02728271484375,0.9830322265625,-2.071075439453125,0.934600830078125,10.265655517578125,1,1.0,1.0,1.0,1.0,55.00
2022-11-23 20:14:05.565,0.8490135,-0.19797441,0.03156567,0.6817948,0.39093223,-0.41348428,-0.1733398,0.21895869,0.67769414,0.010825581,0.17712884,0.5940159,0.21642579,-0.18703555,-0.13358799,0.37651125,-0.21362402,-0.7058266,-0.5152874,-0.078234926,791.75824,803.0403,808.2784,809.4872,646.7033,-0.25225830078125,-0.02728271484375,0.9830322265625,-2.071075439453125,0.934600830078125,10.265655517578125,1,1.0,1.0,1.0,1.0,55.00
2022-11-23 20:14:05.566,0.8490135,-0.19797441,0.03156567,0.6817948,0.39093223,-0.41348428,-0.1733398,0.21895869,0.67769414,0.010825581,0.17712884,0.5940159,0.21642579,-0.18703555,-0.13358799,0.37651125,-0.21362402,-0.7058266,-0.5152874,-0.078234926,786.9231,800.6227,806.6667,810.696,577.8022,-0.25225830078125,-0.02728271484375,0.9830322265625,-2.071075439453125,0.934600830078125,10.265655517578125,1,1.0,1.0,1.0,1.0,55.00
2022-11-23 20:14:05.566,0.8490135,-0.19797441,0.03156567,0.6817948,0.39093223,-0.41348428,-0.1733398,0.21895869,0.67769414,0.010825581,0.17712884,0.5940159,0.21642579,-0.18703555,-0.13358799,0.37651125,-0.21362402,-0.7058266,-0.5152874,-0.078234926,840.5128,806.6667,810.293,849.7802,718.4249,-0.25225830078125,-0.02728271484375,0.9830322265625,-2.071075439453125,0.934600830078125,10.265655517578125,1,1.0,1.0,1.0,1.0,55.00
2022-11-23 20:14:05.566,0.8490135,-0.19797441,0.03156567,0.6817948,0.39093223,-0.41348428,-0.1733398,0.21895869,0.67769414,0.010825581,0.17712884,0.5940159,0.21642579,-0.18703555,-0.13358799,0.37651125,-0.21362402,-0.7058266,-0.5152874,-0.078234926,848.97437,810.696,810.293,850.989,940.0366,-0.25225830078125,-0.02728271484375,0.9830322265625,-2.071075439453125,0.934600830078125,10.265655517578125,1,1.0,1.0,1.0,1.0,55.00
2022-11-23 20:14:05.566,0.8490135,-0.19797441,0.03156567,0.6817948,0.39093223,-0.41348428,-0.1733398,0.21895869,0.67769414,0.010825581,0.17712884,0.5940159,0.21642579,-0.18703555,-0.13358799,0.37651125,-0.21362402,-0.7058266,-0.5152874,-0.078234926,798.20514,805.05493,803.8461,804.65204,936.0073,-0.25225830078125,-0.02728271484375,0.9830322265625,-2.071075439453125,0.934600830078125,10.265655517578125,1,1.0,1.0,1.0,1.0,55.00
2022-11-23 20:14:05,,,,,,,,,,,,,,,,,,,,,,,,,,,,,,,,,,,,,,/muse/elements/blink
2022-11-23 20:14:05.567,0.85724694,-0.058388107,0.13189285,0.67172295,0.3766769,-0.29410154,-0.05961995,0.051043727,0.65397775,0.14020225,0.24666198,0.5834078,0.2189101,-0.2050151,-0.13194317,0.38820496,-0.22324517,-0.7085043,-0.5244024,-0.090834595,769.59705,802.6374,798.60803,781.685,836.4835,-0.25225830078125,-0.02728271484375,0.9830322265625,-2.071075439453125,0.934600830078125,10.265655517578125,1,1.0,1.0,1.0,1.0,55.00
2022-11-23 20:14:05.568,0.85724694,-0.058388107,0.13189285,0.67172295,0.3766769,-0.29410154,-0.05961995,0.051043727,0.65397775,0.14020225,0.24666198,0.5834078,0.2189101,-0.2050151,-0.13194317,0.38820496,-0.22324517,-0.7085043,-0.5244024,-0.090834595,813.1135,807.0696,799.81683,824.7985,902.1612,-0.25225830078125,-0.02728271484375,0.9830322265625,-2.071075439453125,0.934600830078125,10.265655517578125,1,1.0,1.0,1.0,1.0,55.00
2022-11-23 20:14:05.568,0.85724694,-0.058388107,0.13189285,0.67172295,0.3766769,-0.29410154,-0.05961995,0.051043727,0.65397775,0.14020225,0.24666198,0.5834078,0.2189101,-0.2050151,-0.13194317,0.38820496,-0.22324517,-0.7085043,-0.5244024,-0.090834595,847.76556,808.68134,803.44324,852.6007,1180.989,-0.25225830078125,-0.02728271484375,0.9830322265625,-2.071075439453125,0.934600830078125,10.265655517578125,1,1.0,1.0,1.0,1.0,55.00
2022-11-23 20:14:05.568,0.85724694,-0.058388107,0.13189285,0.67172295,0.3766769,-0.29410154,-0.05961995,0.051043727,0.65397775,0.14020225,0.24666198,0.5834078,0.2189101,-0.2050151,-0.13194317,0.38820496,-0.22324517,-0.7085043,-0.5244024,-0.090834595,811.50183,805.8608,804.2491,813.5165,1206.7766,-0.25225830078125,-0.02728271484375,0.9830322265625,-2.071075439453125,0.934600830078125,10.265655517578125,1,1.0,1.0,1.0,1.0,55.00
2022-11-23 20:14:05.569,0.85724694,-0.058388107,0.13189285,0.67172295,0.3766769,-0.29410154,-0.05961995,0.051043727,0.65397775,0.14020225,0.24666198,0.5834078,0.2189101,-0.2050151,-0.13194317,0.38820496,-0.22324517,-0.7085043,-0.5244024,-0.090834595,771.6117,803.0403,805.8608,785.7143,832.8571,-0.25225830078125,-0.02728271484375,0.9830322265625,-2.071075439453125,0.934600830078125,10.265655517578125,1,1.0,1.0,1.0,1.0,55.00
2022-11-23 20:14:05.614,0.85724694,-0.058388107,0.13189285,0.67172295,0.3766769,-0.29410154,-0.05961995,0.051043727,0.65397775,0.14020225,0.24666198,0.5834078,0.2189101,-0.2050151,-0.13194317,0.38820496,-0.22324517,-0.7085043,-0.5244024,-0.090834595,796.99634,804.65204,803.44324,807.8755,743.00366,-0.24847412109375,-0.0322265625,0.97784423828125,-0.478515625,-1.7645263671875,5.839385986328125,1,1.0,1.0,1.0,1.0,55.00
2022-11-23 20:14:05.614,0.85724694,-0.058388107,0.13189285,0.67172295,0.3766769,-0.29410154,-0.05961995,0.051043727,0.65397775,0.14020225,0.24666198,0.5834078,0.2189101,-0.2050151,-0.13194317,0.38820496,-0.22324517,-0.7085043,-0.5244024,-0.090834595,848.5714,804.65204,799.41394,835.6777,905.78754,-0.24847412109375,-0.0322265625,0.97784423828125,-0.478515625,-1.7645263671875,5.839385986328125,1,1.0,1.0,1.0,1.0,55.00
2022-11-23 20:14:05.614,0.85724694,-0.058388107,0.13189285,0.67172295,0.3766769,-0.29410154,-0.05961995,0.051043727,0.65397775,0.14020225,0.24666198,0.5834078,0.2189101,-0.2050151,-0.13194317,0.38820496,-0.22324517,-0.7085043,-0.5244024,-0.090834595,834.4689,802.6374,803.44324,819.15753,803.0403,-0.24847412109375,-0.0322265625,0.97784423828125,-0.478515625,-1.7645263671875,5.839385986328125,1,1.0,1.0,1.0,1.0,55.00
2022-11-23 20:14:05.615,0.85724694,-0.058388107,0.13189285,0.67172295,0.3766769,-0.29410154,-0.05961995,0.051043727,0.65397775,0.14020225,0.24666198,0.5834078,0.2189101,-0.2050151,-0.13194317,0.38820496,-0.22324517,-0.7085043,-0.5244024,-0.090834595,784.10254,801.8315,805.8608,790.54944,622.52747,-0.24847412109375,-0.0322265625,0.97784423828125,-0.478515625,-1.7645263671875,5.839385986328125,1,1.0,1.0,1.0,1.0,55.00
2022-11-23 20:14:05.615,0.85724694,-0.058388107,0.13189285,0.67172295,0.3766769,-0.29410154,-0.05961995,0.051043727,0.65397775,0.14020225,0.24666198,0.5834078,0.2189101,-0.2050151,-0.13194317,0.38820496,-0.22324517,-0.7085043,-0.5244024,-0.090834595,793.36993,802.23444,805.4579,797.3993,647.50916,-0.24847412109375,-0.0322265625,0.97784423828125,-0.478515625,-1.7645263671875,5.839385986328125,1,1.0,1.0,1.0,1.0,55.00
2022-11-23 20:14:05.615,0.85724694,-0.058388107,0.13189285,0.67172295,0.3766769,-0.29410154,-0.05961995,0.051043727,0.65397775,0.14020225,0.24666198,0.5834078,0.2189101,-0.2050151,-0.13194317,0.38820496,-0.22324517,-0.7085043,-0.5244024,-0.090834595,846.9597,805.8608,806.26373,826.4103,846.9597,-0.24847412109375,-0.0322265625,0.97784423828125,-0.478515625,-1.7645263671875,5.839385986328125,1,1.0,1.0,1.0,1.0,55.00
2022-11-23 20:14:05.616,0.85724694,-0.058388107,0.13189285,0.67172295,0.3766769,-0.29410154,-0.05961995,0.051043727,0.65397775,0.14020225,0.24666198,0.5834078,0.2189101,-0.2050151,-0.13194317,0.38820496,-0.22324517,-0.7085043,-0.5244024,-0.090834595,844.1392,807.47253,802.23444,829.2308,925.9341,-0.24847412109375,-0.0322265625,0.97784423828125,-0.478515625,-1.7645263671875,5.839385986328125,1,1.0,1.0,1.0,1.0,55.00
2022-11-23 20:14:05.616,0.85724694,-0.058388107,0.13189285,0.67172295,0.3766769,-0.29410154,-0.05961995,0.051043727,0.65397775,0.14020225,0.24666198,0.5834078,0.2189101,-0.2050151,-0.13194317,0.38820496,-0.22324517,-0.7085043,-0.5244024,-0.090834595,792.5641,809.4872,804.2491,797.3993,664.83514,-0.24847412109375,-0.0322265625,0.97784423828125,-0.478515625,-1.7645263671875,5.839385986328125,1,1.0,1.0,1.0,1.0,55.00
2022-11-23 20:14:05.616,0.85724694,-0.058388107,0.13189285,0.67172295,0.3766769,-0.29410154,-0.05961995,0.051043727,0.65397775,0.14020225,0.24666198,0.5834078,0.2189101,-0.2050151,-0.13194317,0.38820496,-0.22324517,-0.7085043,-0.5244024,-0.090834595,784.5055,809.4872,805.8608,796.99634,597.5458,-0.24847412109375,-0.0322265625,0.97784423828125,-0.478515625,-1.7645263671875,5.839385986328125,1,1.0,1.0,1.0,1.0,55.00
2022-11-23 20:14:05.616,0.85724694,-0.058388107,0.13189285,0.67172295,0.3766769,-0.29410154,-0.05961995,0.051043727,0.65397775,0.14020225,0.24666198,0.5834078,0.2189101,-0.2050151,-0.13194317,0.38820496,-0.22324517,-0.7085043,-0.5244024,-0.090834595,830.0366,807.0696,804.65204,833.663,979.92676,-0.24847412109375,-0.0322265625,0.97784423828125,-0.478515625,-1.7645263671875,5.839385986328125,1,1.0,1.0,1.0,1.0,55.00
2022-11-23 20:14:05.616,0.85724694,-0.058388107,0.13189285,0.67172295,0.3766769,-0.29410154,-0.05961995,0.051043727,0.65397775,0.14020225,0.24666198,0.5834078,0.2189101,-0.2050151,-0.13194317,0.38820496,-0.22324517,-0.7085043,-0.5244024,-0.090834595,847.76556,812.71063,806.6667,831.6484,986.3736,-0.24847412109375,-0.0322265625,0.97784423828125,-0.478515625,-1.7645263671875,5.839385986328125,1,1.0,1.0,1.0,1.0,55.00
2022-11-23 20:14:05.617,0.85724694,-0.058388107,0.13189285,0.67172295,0.3766769,-0.29410154,-0.05961995,0.051043727,0.65397775,0.14020225,0.24666198,0.5834078,0.2189101,-0.2050151,-0.13194317,0.38820496,-0.22324517,-0.7085043,-0.5244024,-0.090834595,810.696,817.9487,808.2784,797.8022,775.64105,-0.24847412109375,-0.0322265625,0.97784423828125,-0.478515625,-1.7645263671875,5.839385986328125,1,1.0,1.0,1.0,1.0,55.00
2022-11-23 20:14:05.639,0.85724694,-0.058388107,0.13189285,0.67172295,0.3766769,-0.29410154,-0.05961995,0.051043727,0.65397775,0.14020225,0.24666198,0.5834078,0.2189101,-0.2050151,-0.13194317,0.38820496,-0.22324517,-0.7085043,-0.5244024,-0.090834595,785.7143,817.9487,810.696,787.72894,743.4066,-0.2528076171875,-0.0341796875,0.97454833984375,3.626251220703125,-1.8841552734375,2.930908203125,1,1.0,1.0,1.0,1.0,55.00
2022-11-23 20:14:05.640,0.85724694,-0.058388107,0.13189285,0.67172295,0.3766769,-0.29410154,-0.05961995,0.051043727,0.65397775,0.14020225,0.24666198,0.5834078,0.2189101,-0.2050151,-0.13194317,0.38820496,-0.22324517,-0.7085043,-0.5244024,-0.090834595,822.7839,811.50183,807.0696,814.7253,918.2784,-0.2528076171875,-0.0341796875,0.97454833984375,3.626251220703125,-1.8841552734375,2.930908203125,1,1.0,1.0,1.0,1.0,55.00
2022-11-23 20:14:05.640,0.85724694,-0.058388107,0.13189285,0.67172295,0.3766769,-0.29410154,-0.05961995,0.051043727,0.65397775,0.14020225,0.24666198,0.5834078,0.2189101,-0.2050151,-0.13194317,0.38820496,-0.22324517,-0.7085043,-0.5244024,-0.090834595,866.7033,809.0842,804.2491,839.304,1049.6337,-0.2528076171875,-0.0341796875,0.97454833984375,3.626251220703125,-1.8841552734375,2.930908203125,1,1.0,1.0,1.0,1.0,55.00
2022-11-23 20:14:05.640,0.85724694,-0.058388107,0.13189285,0.67172295,0.3766769,-0.29410154,-0.05961995,0.051043727,0.65397775,0.14020225,0.24666198,0.5834078,0.2189101,-0.2050151,-0.13194317,0.38820496,-0.22324517,-0.7085043,-0.5244024,-0.090834595,822.7839,809.4872,802.6374,803.8461,863.8828,-0.2528076171875,-0.0341796875,0.97454833984375,3.626251220703125,-1.8841552734375,2.930908203125,1,1.0,1.0,1.0,1.0,55.00
2022-11-23 20:14:05.640,0.85724694,-0.058388107,0.13189285,0.67172295,0.3766769,-0.29410154,-0.05961995,0.051043727,0.65397775,0.14020225,0.24666198,0.5834078,0.2189101,-0.2050151,-0.13194317,0.38820496,-0.22324517,-0.7085043,-0.5244024,-0.090834595,756.7033,805.8608,801.4286,762.74725,662.01465,-0.2528076171875,-0.0341796875,0.97454833984375,3.626251220703125,-1.8841552734375,2.930908203125,1,1.0,1.0,1.0,1.0,55.00
2022-11-23 20:14:05.641,0.85724694,-0.058388107,0.13189285,0.67172295,0.3766769,-0.29410154,-0.05961995,0.051043727,0.65397775,0.14020225,0.24666198,0.5834078,0.2189101,-0.2050151,-0.13194317,0.38820496,-0.22324517,-0.7085043,-0.5244024,-0.090834595,765.16486,802.23444,799.81683,778.0586,757.50916,-0.2528076171875,-0.0341796875,0.97454833984375,3.626251220703125,-1.8841552734375,2.930908203125,1,1.0,1.0,1.0,1.0,55.00
2022-11-23 20:14:05.641,0.85724694,-0.058388107,0.13189285,0.67172295,0.3766769,-0.29410154,-0.05961995,0.051043727,0.65397775,0.14020225,0.24666198,0.5834078,0.2189101,-0.2050151,-0.13194317,0.38820496,-0.22324517,-0.7085043,-0.5244024,-0.090834595,829.2308,799.41394,804.65204,815.5311,841.31866,-0.2528076171875,-0.0341796875,0.97454833984375,3.626251220703125,-1.8841552734375,2.930908203125,1,1.0,1.0,1.0,1.0,55.00
2022-11-23 20:14:05.641,0.85724694,-0.058388107,0.13189285,0.67172295,0.3766769,-0.29410154,-0.05961995,0.051043727,0.65397775,0.14020225,0.24666198,0.5834078,0.2189101,-0.2050151,-0.13194317,0.38820496,-0.22324517,-0.7085043,-0.5244024,-0.090834595,824.3956,801.02563,807.0696,803.8461,749.45056,-0.2528076171875,-0.0341796875,0.97454833984375,3.626251220703125,-1.8841552734375,2.930908203125,1,1.0,1.0,1.0,1.0,55.00
2022-11-23 20:14:05.641,0.85724694,-0.058388107,0.13189285,0.67172295,0.3766769,-0.29410154,-0.05961995,0.051043727,0.65397775,0.14020225,0.24666198,0.5834078,0.2189101,-0.2050151,-0.13194317,0.38820496,-0.22324517,-0.7085043,-0.5244024,-0.090834595,749.45056,800.2198,803.44324,758.315,718.8278,-0.2528076171875,-0.0341796875,0.97454833984375,3.626251220703125,-1.8841552734375,2.930908203125,1,1.0,1.0,1.0,1.0,55.00
2022-11-23 20:14:05.641,0.856555,0.2377954,0.34965563,0.67172295,0.36194488,-0.030421205,0.16590038,0.051043727,0.6430213,0.28353325,0.34604532,0.5834078,0.22105522,-0.21908033,-0.13087378,0.38820496,-0.23040888,-0.7030226,-0.5209117,-0.090834595,751.06226,800.2198,804.2491,761.13556,812.71063,-0.2528076171875,-0.0341796875,0.97454833984375,3.626251220703125,-1.8841552734375,2.930908203125,1,1.0,1.0,1.0,1.0,55.00
2022-11-23 20:14:05.643,0.856555,0.2377954,0.34965563,0.67172295,0.36194488,-0.030421205,0.16590038,0.051043727,0.6430213,0.28353325,0.34604532,0.5834078,0.22105522,-0.21908033,-0.13087378,0.38820496,-0.23040888,-0.7030226,-0.5209117,-0.090834595,822.381,802.6374,808.68134,798.60803,863.8828,-0.2528076171875,-0.0341796875,0.97454833984375,3.626251220703125,-1.8841552734375,2.930908203125,1,1.0,1.0,1.0,1.0,55.00
2022-11-23 20:14:05.643,0.856555,0.2377954,0.34965563,0.67172295,0.36194488,-0.030421205,0.16590038,0.051043727,0.6430213,0.28353325,0.34604532,0.5834078,0.22105522,-0.21908033,-0.13087378,0.38820496,-0.23040888,-0.7030226,-0.5209117,-0.090834595,827.2161,803.8461,811.50183,807.47253,935.2015,-0.2528076171875,-0.0341796875,0.97454833984375,3.626251220703125,-1.8841552734375,2.930908203125,1,1.0,1.0,1.0,1.0,55.00
2022-11-23 20:14:05.687,0.856555,0.2377954,0.34965563,0.67172295,0.36194488,-0.030421205,0.16590038,0.051043727,0.6430213,0.28353325,0.34604532,0.5834078,0.22105522,-0.21908033,-0.13087378,0.38820496,-0.23040888,-0.7030226,-0.5209117,-0.090834595,766.77655,802.6374,810.293,776.04395,835.2747,-0.2528076171875,-0.0341796875,0.97454833984375,3.626251220703125,-1.8841552734375,2.930908203125,1,1.0,1.0,1.0,1.0,55.00
2022-11-23 20:14:05.687,0.856555,0.2377954,0.34965563,0.67172295,0.36194488,-0.030421205,0.16590038,0.051043727,0.6430213,0.28353325,0.34604532,0.5834078,0.22105522,-0.21908033,-0.13087378,0.38820496,-0.23040888,-0.7030226,-0.5209117,-0.090834595,748.6447,801.02563,804.2491,770.80585,660.0,-0.2528076171875,-0.0341796875,0.97454833984375,3.626251220703125,-1.8841552734375,2.930908203125,1,1.0,1.0,1.0,1.0,55.00
2022-11-23 20:14:05.687,0.856555,0.2377954,0.34965563,0.67172295,0.36194488,-0.030421205,0.16590038,0.051043727,0.6430213,0.28353325,0.34604532,0.5834078,0.22105522,-0.21908033,-0.13087378,0.38820496,-0.23040888,-0.7030226,-0.5209117,-0.090834595,802.23444,802.6374,801.8315,810.293,705.12823,-0.2528076171875,-0.0341796875,0.97454833984375,3.626251220703125,-1.8841552734375,2.930908203125,1,1.0,1.0,1.0,1.0,55.00
2022-11-23 20:14:05.688,0.856555,0.2377954,0.34965563,0.67172295,0.36194488,-0.030421205,0.16590038,0.051043727,0.6430213,0.28353325,0.34604532,0.5834078,0.22105522,-0.21908033,-0.13087378,0.38820496,-0.23040888,-0.7030226,-0.5209117,-0.090834595,836.08057,805.05493,799.81683,822.7839,835.2747,-0.2528076171875,-0.0341796875,0.97454833984375,3.626251220703125,-1.8841552734375,2.930908203125,1,1.0,1.0,1.0,1.0,55.00
2022-11-23 20:14:05.688,0.856555,0.2377954,0.34965563,0.67172295,0.36194488,-0.030421205,0.16590038,0.051043727,0.6430213,0.28353325,0.34604532,0.5834078,0.22105522,-0.21908033,-0.13087378,0.38820496,-0.23040888,-0.7030226,-0.5209117,-0.090834595,790.54944,806.6667,800.2198,792.5641,806.26373,-0.2528076171875,-0.0341796875,0.97454833984375,3.626251220703125,-1.8841552734375,2.930908203125,1,1.0,1.0,1.0,1.0,55.00
2022-11-23 20:14:05.688,0.856555,0.2377954,0.34965563,0.67172295,0.36194488,-0.030421205,0.16590038,0.051043727,0.6430213,0.28353325,0.34604532,0.5834078,0.22105522,-0.21908033,-0.13087378,0.38820496,-0.23040888,-0.7030226,-0.5209117,-0.090834595,754.68866,804.65204,803.8461,773.22345,619.707,-0.2528076171875,-0.0341796875,0.97454833984375,3.626251220703125,-1.8841552734375,2.930908203125,1,1.0,1.0,1.0,1.0,55.00
2022-11-23 20:14:05.689,0.856555,0.2377954,0.34965563,0.67172295,0.36194488,-0.030421205,0.16590038,0.051043727,0.6430213,0.28353325,0.34604532,0.5834078,0.22105522,-0.21908033,-0.13087378,0.38820496,-0.23040888,-0.7030226,-0.5209117,-0.090834595,799.011,804.65204,804.65204,802.6374,730.10986,-0.2528076171875,-0.0341796875,0.97454833984375,3.626251220703125,-1.8841552734375,2.930908203125,1,1.0,1.0,1.0,1.0,55.00
2022-11-23 20:14:05.689,0.856555,0.2377954,0.34965563,0.67172295,0.36194488,-0.030421205,0.16590038,0.051043727,0.6430213,0.28353325,0.34604532,0.5834078,0.22105522,-0.21908033,-0.13087378,0.38820496,-0.23040888,-0.7030226,-0.5209117,-0.090834595,842.9304,802.23444,804.65204,828.022,941.2454,-0.2528076171875,-0.0341796875,0.97454833984375,3.626251220703125,-1.8841552734375,2.930908203125,1,1.0,1.0,1.0,1.0,55.00
2022-11-23 20:14:05.689,0.856555,0.2377954,0.34965563,0.67172295,0.36194488,-0.030421205,0.16590038,0.051043727,0.6430213,0.28353325,0.34604532,0.5834078,0.22105522,-0.21908033,-0.13087378,0.38820496,-0.23040888,-0.7030226,-0.5209117,-0.090834595,812.3077,799.41394,805.05493,801.02563,1069.7803,-0.2528076171875,-0.0341796875,0.97454833984375,3.626251220703125,-1.8841552734375,2.930908203125,1,1.0,1.0,1.0,1.0,55.00
2022-11-23 20:14:05.689,0.856555,0.2377954,0.34965563,0.67172295,0.36194488,-0.030421205,0.16590038,0.051043727,0.6430213,0.28353325,0.34604532,0.5834078,0.22105522,-0.21908033,-0.13087378,0.38820496,-0.23040888,-0.7030226,-0.5209117,-0.090834595,754.2857,802.23444,802.23444,774.43225,853.4066,-0.2528076171875,-0.0341796875,0.97454833984375,3.626251220703125,-1.8841552734375,2.930908203125,1,1.0,1.0,1.0,1.0,55.00
2022-11-23 20:14:05.690,0.856555,0.2377954,0.34965563,0.67172295,0.36194488,-0.030421205,0.16590038,0.051043727,0.6430213,0.28353325,0.34604532,0.5834078,0.22105522,-0.21908033,-0.13087378,0.38820496,-0.23040888,-0.7030226,-0.5209117,-0.090834595,774.43225,805.05493,800.6227,800.2198,623.3333,-0.2528076171875,-0.0341796875,0.97454833984375,3.626251220703125,-1.8841552734375,2.930908203125,1,1.0,1.0,1.0,1.0,55.00
2022-11-23 20:14:05.690,0.856555,0.2377954,0.34965563,0.67172295,0.36194488,-0.030421205,0.16590038,0.051043727,0.6430213,0.28353325,0.34604532,0.5834078,0.22105522,-0.21908033,-0.13087378,0.38820496,-0.23040888,-0.7030226,-0.5209117,-0.090834595,840.10986,807.0696,805.8608,832.0513,812.71063,-0.2528076171875,-0.0341796875,0.97454833984375,3.626251220703125,-1.8841552734375,2.930908203125,1,1.0,1.0,1.0,1.0,55.00
2022-11-23 20:14:05.739,0.856555,0.2377954,0.34965563,0.67172295,0.36194488,-0.030421205,0.16590038,0.051043727,0.6430213,0.28353325,0.34604532,0.5834078,0.22105522,-0.21908033,-0.13087378,0.38820496,-0.23040888,-0.7030226,-0.5209117,-0.090834595,830.4396,804.2491,808.68134,815.9341,841.7216,-0.2313232421875,-0.02569580078125,0.99407958984375,6.467437744140625,-3.887939453125,0.127105712890625,1,1.0,1.0,1.0,1.0,55.00
2022-11-23 20:14:05.739,0.856555,0.2377954,0.34965563,0.67172295,0.36194488,-0.030421205,0.16590038,0.051043727,0.6430213,0.28353325,0.34604532,0.5834078,0.22105522,-0.21908033,-0.13087378,0.38820496,-0.23040888,-0.7030226,-0.5209117,-0.090834595,770.40295,806.26373,810.696,777.6557,645.89746,-0.2313232421875,-0.02569580078125,0.99407958984375,6.467437744140625,-3.887939453125,0.127105712890625,1,1.0,1.0,1.0,1.0,55.00
2022-11-23 20:14:05.740,0.856555,0.2377954,0.34965563,0.67172295,0.36194488,-0.030421205,0.16590038,0.051043727,0.6430213,0.28353325,0.34604532,0.5834078,0.22105522,-0.21908033,-0.13087378,0.38820496,-0.23040888,-0.7030226,-0.5209117,-0.090834595,767.1795,805.4579,812.71063,788.93774,618.9011,-0.2313232421875,-0.02569580078125,0.99407958984375,6.467437744140625,-3.887939453125,0.127105712890625,1,1.0,1.0,1.0,1.0,55.00
2022-11-23 20:14:05.740,0.856555,0.2377954,0.34965563,0.67172295,0.36194488,-0.030421205,0.16590038,0.051043727,0.6430213,0.28353325,0.34604532,0.5834078,0.22105522,-0.21908033,-0.13087378,0.38820496,-0.23040888,-0.7030226,-0.5209117,-0.090834595,826.4103,802.23444,805.05493,828.022,822.381,-0.2313232421875,-0.02569580078125,0.99407958984375,6.467437744140625,-3.887939453125,0.127105712890625,1,1.0,1.0,1.0,1.0,55.00
2022-11-23 20:14:05.740,0.856555,0.2377954,0.34965563,0.67172295,0.36194488,-0.030421205,0.16590038,0.051043727,0.6430213,0.28353325,0.34604532,0.5834078,0.22105522,-0.21908033,-0.13087378,0.38820496,-0.23040888,-0.7030226,-0.5209117,-0.090834595,850.989,807.0696,806.26373,838.49817,914.65204,-0.2313232421875,-0.02569580078125,0.99407958984375,6.467437744140625,-3.887939453125,0.127105712890625,1,1.0,1.0,1.0,1.0,55.00
2022-11-23 20:14:05.740,0.856555,0.2377954,0.34965563,0.67172295,0.36194488,-0.030421205,0.16590038,0.051043727,0.6430213,0.28353325,0.34604532,0.5834078,0.22105522,-0.21908033,-0.13087378,0.38820496,-0.23040888,-0.7030226,-0.5209117,-0.090834595,800.2198,807.0696,813.1135,806.6667,777.25275,-0.2313232421875,-0.02569580078125,0.99407958984375,6.467437744140625,-3.887939453125,0.127105712890625,1,1.0,1.0,1.0,1.0,55.00
2022-11-23 20:14:05.740,0.856555,0.2377954,0.34965563,0.67172295,0.36194488,-0.030421205,0.16590038,0.051043727,0.6430213,0.28353325,0.34604532,0.5834078,0.22105522,-0.21908033,-0.13087378,0.38820496,-0.23040888,-0.7030226,-0.5209117,-0.090834595,773.22345,806.6667,809.4872,786.52014,799.011,-0.2313232421875,-0.02569580078125,0.99407958984375,6.467437744140625,-3.887939453125,0.127105712890625,1,1.0,1.0,1.0,1.0,55.00
2022-11-23 20:14:05.741,0.856555,0.2377954,0.34965563,0.67172295,0.36194488,-0.030421205,0.16590038,0.051043727,0.6430213,0.28353325,0.34604532,0.5834078,0.22105522,-0.21908033,-0.13087378,0.38820496,-0.23040888,-0.7030226,-0.5209117,-0.090834595,815.12823,803.8461,805.05493,823.1868,1192.2711,-0.2313232421875,-0.02569580078125,0.99407958984375,6.467437744140625,-3.887939453125,0.127105712890625,1,1.0,1.0,1.0,1.0,55.00
2022-11-23 20:14:05.741,0.856555,0.2377954,0.34965563,0.67172295,0.36194488,-0.030421205,0.16590038,0.051043727,0.6430213,0.28353325,0.34604532,0.5834078,0.22105522,-0.21908033,-0.13087378,0.38820496,-0.23040888,-0.7030226,-0.5209117,-0.090834595,846.55676,799.81683,805.05493,850.18317,1421.1355,-0.2313232421875,-0.02569580078125,0.99407958984375,6.467437744140625,-3.887939453125,0.127105712890625,1,1.0,1.0,1.0,1.0,55.00
2022-11-23 20:14:05.741,0.856555,0.2377954,0.34965563,0.67172295,0.36194488,-0.030421205,0.16590038,0.051043727,0.6430213,0.28353325,0.34604532,0.5834078,0.22105522,-0.21908033,-0.13087378,0.38820496,-0.23040888,-0.7030226,-0.5209117,-0.090834595,808.68134,801.8315,806.26373,819.5604,916.26373,-0.2313232421875,-0.02569580078125,0.99407958984375,6.467437744140625,-3.887939453125,0.127105712890625,1,1.0,1.0,1.0,1.0,55.00
2022-11-23 20:14:05.741,0.856555,0.2377954,0.34965563,0.67172295,0.36194488,-0.030421205,0.16590038,0.051043727,0.6430213,0.28353325,0.34604532,0.5834078,0.22105522,-0.21908033,-0.13087378,0.38820496,-0.23040888,-0.7030226,-0.5209117,-0.090834595,767.1795,805.8608,807.8755,795.38464,580.6227,-0.2313232421875,-0.02569580078125,0.99407958984375,6.467437744140625,-3.887939453125,0.127105712890625,1,1.0,1.0,1.0,1.0,55.00
2022-11-23 20:14:05.742,0.83310956,0.5447607,0.6096126,0.67172295,0.34552103,0.25756645,0.42031822,0.051043727,0.6360857,0.38750583,0.50681555,0.5834078,0.21823668,-0.2238533,-0.13010904,0.38820496,-0.24209139,-0.6887979,-0.5008803,-0.090834595,799.011,805.05493,807.47253,819.5604,714.3956,-0.2313232421875,-0.02569580078125,0.99407958984375,6.467437744140625,-3.887939453125,0.127105712890625,1,1.0,1.0,1.0,1.0,55.00
2022-11-23 20:14:05.793,0.83310956,0.5447607,0.6096126,0.67172295,0.34552103,0.25756645,0.42031822,0.051043727,0.6360857,0.38750583,0.50681555,0.5834078,0.21823668,-0.2238533,-0.13010904,0.38820496,-0.24209139,-0.6887979,-0.5008803,-0.090834595,854.21246,806.6667,804.2491,853.00366,841.31866,-0.22296142578125,-0.0025634765625,0.99090576171875,9.55535888671875,-4.239349365234375,3.170166015625,1,1.0,1.0,1.0,1.0,55.00
2022-11-23 20:14:05.794,0.83310956,0.5447607,0.6096126,0.67172295,0.34552103,0.25756645,0.42031822,0.051043727,0.6360857,0.38750583,0.50681555,0.5834078,0.21823668,-0.2238533,-0.13010904,0.38820496,-0.24209139,-0.6887979,-0.5008803,-0.090834595,834.0659,809.4872,802.23444,826.8132,738.1685,-0.22296142578125,-0.0025634765625,0.99090576171875,9.55535888671875,-4.239349365234375,3.170166015625,1,1.0,1.0,1.0,1.0,55.00
2022-11-23 20:14:05.795,0.83310956,0.5447607,0.6096126,0.67172295,0.34552103,0.25756645,0.42031822,0.051043727,0.6360857,0.38750583,0.50681555,0.5834078,0.21823668,-0.2238533,-0.13010904,0.38820496,-0.24209139,-0.6887979,-0.5008803,-0.090834595,773.22345,806.6667,802.23444,782.0879,542.3443,-0.22296142578125,-0.0025634765625,0.99090576171875,9.55535888671875,-4.239349365234375,3.170166015625,1,1.0,1.0,1.0,1.0,55.00
2022-11-23 20:14:05.795,0.83310956,0.5447607,0.6096126,0.67172295,0.34552103,0.25756645,0.42031822,0.051043727,0.6360857,0.38750583,0.50681555,0.5834078,0.21823668,-0.2238533,-0.13010904,0.38820496,-0.24209139,-0.6887979,-0.5008803,-0.090834595,783.69965,803.0403,803.0403,801.8315,593.91943,-0.22296142578125,-0.0025634765625,0.99090576171875,9.55535888671875,-4.239349365234375,3.170166015625,1,1.0,1.0,1.0,1.0,55.00
2022-11-23 20:14:05.796,0.83310956,0.5447607,0.6096126,0.67172295,0.34552103,0.25756645,0.42031822,0.051043727,0.6360857,0.38750583,0.50681555,0.5834078,0.21823668,-0.2238533,-0.13010904,0.38820496,-0.24209139,-0.6887979,-0.5008803,-0.090834595,850.18317,804.2491,805.8608,845.34796,802.6374,-0.22296142578125,-0.0025634765625,0.99090576171875,9.55535888671875,-4.239349365234375,3.170166015625,1,1.0,1.0,1.0,1.0,55.00
2022-11-23 20:14:05.796,0.83310956,0.5447607,0.6096126,0.67172295,0.34552103,0.25756645,0.42031822,0.051043727,0.6360857,0.38750583,0.50681555,0.5834078,0.21823668,-0.2238533,-0.13010904,0.38820496,-0.24209139,-0.6887979,-0.5008803,-0.090834595,844.1392,803.0403,809.4872,834.87177,895.7143,-0.22296142578125,-0.0025634765625,0.99090576171875,9.55535888671875,-4.239349365234375,3.170166015625,1,1.0,1.0,1.0,1.0,55.00
2022-11-23 20:14:05.797,0.83310956,0.5447607,0.6096126,0.67172295,0.34552103,0.25756645,0.42031822,0.051043727,0.6360857,0.38750583,0.50681555,0.5834078,0.21823668,-0.2238533,-0.13010904,0.38820496,-0.24209139,-0.6887979,-0.5008803,-0.090834595,773.6264,801.02563,807.8755,788.1319,863.47986,-0.22296142578125,-0.0025634765625,0.99090576171875,9.55535888671875,-4.239349365234375,3.170166015625,1,1.0,1.0,1.0,1.0,55.00
2022-11-23 20:14:05.798,0.83310956,0.5447607,0.6096126,0.67172295,0.34552103,0.25756645,0.42031822,0.051043727,0.6360857,0.38750583,0.50681555,0.5834078,0.21823668,-0.2238533,-0.13010904,0.38820496,-0.24209139,-0.6887979,-0.5008803,-0.090834595,771.6117,804.2491,805.8608,795.78754,955.7509,-0.22296142578125,-0.0025634765625,0.99090576171875,9.55535888671875,-4.239349365234375,3.170166015625,1,1.0,1.0,1.0,1.0,55.00
2022-11-23 20:14:05.798,0.83310956,0.5447607,0.6096126,0.67172295,0.34552103,0.25756645,0.42031822,0.051043727,0.6360857,0.38750583,0.50681555,0.5834078,0.21823668,-0.2238533,-0.13010904,0.38820496,-0.24209139,-0.6887979,-0.5008803,-0.090834595,826.0073,802.23444,806.6667,829.6337,883.6264,-0.22296142578125,-0.0025634765625,0.99090576171875,9.55535888671875,-4.239349365234375,3.170166015625,1,1.0,1.0,1.0,1.0,55.00
2022-11-23 20:14:05.799,0.83310956,0.5447607,0.6096126,0.67172295,0.34552103,0.25756645,0.42031822,0.051043727,0.6360857,0.38750583,0.50681555,0.5834078,0.21823668,-0.2238533,-0.13010904,0.38820496,-0.24209139,-0.6887979,-0.5008803,-0.090834595,837.28937,802.6374,808.68134,829.6337,774.83514,-0.22296142578125,-0.0025634765625,0.99090576171875,9.55535888671875,-4.239349365234375,3.170166015625,1,1.0,1.0,1.0,1.0,55.00
2022-11-23 20:14:05.799,0.83310956,0.5447607,0.6096126,0.67172295,0.34552103,0.25756645,0.42031822,0.051043727,0.6360857,0.38750583,0.50681555,0.5834078,0.21823668,-0.2238533,-0.13010904,0.38820496,-0.24209139,-0.6887979,-0.5008803,-0.090834595,788.5348,807.0696,806.26373,790.9524,732.52747,-0.22296142578125,-0.0025634765625,0.99090576171875,9.55535888671875,-4.239349365234375,3.170166015625,1,1.0,1.0,1.0,1.0,55.00
2022-11-23 20:14:05.799,0.83310956,0.5447607,0.6096126,0.67172295,0.34552103,0.25756645,0.42031822,0.051043727,0.6360857,0.38750583,0.50681555,0.5834078,0.21823668,-0.2238533,-0.13010904,0.38820496,-0.24209139,-0.6887979,-0.5008803,-0.090834595,766.3736,806.26373,803.0403,776.4469,656.3736,-0.22296142578125,-0.0025634765625,0.99090576171875,9.55535888671875,-4.239349365234375,3.170166015625,1,1.0,1.0,1.0,1.0,55.00
2022-11-23 20:14:05.847,0.83310956,0.5447607,0.6096126,0.67172295,0.34552103,0.25756645,0.42031822,0.051043727,0.6360857,0.38750583,0.50681555,0.5834078,0.21823668,-0.2238533,-0.13010904,0.38820496,-0.24209139,-0.6887979,-0.5008803,-0.090834595,810.696,807.0696,802.23444,808.68134,732.52747,-0.21954345703125,0.00872802734375,0.99945068359375,8.022613525390625,-3.431854248046875,4.613189697265625,1,1.0,1.0,1.0,1.0,55.00
2022-11-23 20:14:05.847,0.83310956,0.5447607,0.6096126,0.67172295,0.34552103,0.25756645,0.42031822,0.051043727,0.6360857,0.38750583,0.50681555,0.5834078,0.21823668,-0.2238533,-0.13010904,0.38820496,-0.24209139,-0.6887979,-0.5008803,-0.090834595,845.34796,810.293,802.23444,828.8278,861.06226,-0.21954345703125,0.00872802734375,0.99945068359375,8.022613525390625,-3.431854248046875,4.613189697265625,1,1.0,1.0,1.0,1.0,55.00
2022-11-23 20:14:05.848,0.83310956,0.5447607,0.6096126,0.67172295,0.34552103,0.25756645,0.42031822,0.051043727,0.6360857,0.38750583,0.50681555,0.5834078,0.21823668,-0.2238533,-0.13010904,0.38820496,-0.24209139,-0.6887979,-0.5008803,-0.090834595,805.05493,809.4872,804.65204,799.41394,800.6227,-0.21954345703125,0.00872802734375,0.99945068359375,8.022613525390625,-3.431854248046875,4.613189697265625,1,1.0,1.0,1.0,1.0,55.00
2022-11-23 20:14:05.848,0.83310956,0.5447607,0.6096126,0.67172295,0.34552103,0.25756645,0.42031822,0.051043727,0.6360857,0.38750583,0.50681555,0.5834078,0.21823668,-0.2238533,-0.13010904,0.38820496,-0.24209139,-0.6887979,-0.5008803,-0.090834595,755.89746,807.47253,803.8461,767.1795,656.3736,-0.21954345703125,0.00872802734375,0.99945068359375,8.022613525390625,-3.431854248046875,4.613189697265625,1,1.0,1.0,1.0,1.0,55.00
2022-11-23 20:14:05.848,0.83310956,0.5447607,0.6096126,0.67172295,0.34552103,0.25756645,0.42031822,0.051043727,0.6360857,0.38750583,0.50681555,0.5834078,0.21823668,-0.2238533,-0.13010904,0.38820496,-0.24209139,-0.6887979,-0.5008803,-0.090834595,785.31134,805.8608,801.4286,791.75824,705.9341,-0.21954345703125,0.00872802734375,0.99945068359375,8.022613525390625,-3.431854248046875,4.613189697265625,1,1.0,1.0,1.0,1.0,55.00
2022-11-23 20:14:05.848,0.83310956,0.5447607,0.6096126,0.67172295,0.34552103,0.25756645,0.42031822,0.051043727,0.6360857,0.38750583,0.50681555,0.5834078,0.21823668,-0.2238533,-0.13010904,0.38820496,-0.24209139,-0.6887979,-0.5008803,-0.090834595,838.49817,806.6667,799.41394,816.337,946.08057,-0.21954345703125,0.00872802734375,0.99945068359375,8.022613525390625,-3.431854248046875,4.613189697265625,1,1.0,1.0,1.0,1.0,55.00
2022-11-23 20:14:05.849,0.83310956,0.5447607,0.6096126,0.67172295,0.34552103,0.25756645,0.42031822,0.051043727,0.6360857,0.38750583,0.50681555,0.5834078,0.21823668,-0.2238533,-0.13010904,0.38820496,-0.24209139,-0.6887979,-0.5008803,-0.090834595,820.7692,804.65204,796.99634,792.5641,1102.8206,-0.21954345703125,0.00872802734375,0.99945068359375,8.022613525390625,-3.431854248046875,4.613189697265625,1,1.0,1.0,1.0,1.0,55.00
2022-11-23 20:14:05.849,0.83310956,0.5447607,0.6096126,0.67172295,0.34552103,0.25756645,0.42031822,0.051043727,0.6360857,0.38750583,0.50681555,0.5834078,0.21823668,-0.2238533,-0.13010904,0.38820496,-0.24209139,-0.6887979,-0.5008803,-0.090834595,759.92676,802.23444,796.5934,755.09155,934.3956,-0.21954345703125,0.00872802734375,0.99945068359375,8.022613525390625,-3.431854248046875,4.613189697265625,1,1.0,1.0,1.0,1.0,55.00
2022-11-23 20:14:05.849,0.83310956,0.5447607,0.6096126,0.67172295,0.34552103,0.25756645,0.42031822,0.051043727,0.6360857,0.38750583,0.50681555,0.5834078,0.21823668,-0.2238533,-0.13010904,0.38820496,-0.24209139,-0.6887979,-0.5008803,-0.090834595,765.56775,805.05493,797.3993,769.19415,686.1905,-0.21954345703125,0.00872802734375,0.99945068359375,8.022613525390625,-3.431854248046875,4.613189697265625,1,1.0,1.0,1.0,1.0,55.00
2022-11-23 20:14:05.849,0.83310956,0.5447607,0.6096126,0.67172295,0.34552103,0.25756645,0.42031822,0.051043727,0.6360857,0.38750583,0.50681555,0.5834078,0.21823668,-0.2238533,-0.13010904,0.38820496,-0.24209139,-0.6887979,-0.5008803,-0.090834595,823.5897,805.8608,794.57874,811.0989,807.8755,-0.21954345703125,0.00872802734375,0.99945068359375,8.022613525390625,-3.431854248046875,4.613189697265625,1,1.0,1.0,1.0,1.0,55.00
2022-11-23 20:14:05.850,0.83310956,0.5447607,0.6096126,0.67172295,0.34552103,0.25756645,0.42031822,0.051043727,0.6360857,0.38750583,0.50681555,0.5834078,0.21823668,-0.2238533,-0.13010904,0.38820496,-0.24209139,-0.6887979,-0.5008803,-0.090834595,825.6044,809.0842,794.17584,804.65204,890.4762,-0.21954345703125,0.00872802734375,0.99945068359375,8.022613525390625,-3.431854248046875,4.613189697265625,1,1.0,1.0,1.0,1.0,55.00
2022-11-23 20:14:05.850,0.83310956,0.5447607,0.6096126,0.67172295,0.34552103,0.25756645,0.42031822,0.051043727,0.6360857,0.38750583,0.50681555,0.5834078,0.21823668,-0.2238533,-0.13010904,0.38820496,-0.24209139,-0.6887979,-0.5008803,-0.090834595,764.35895,809.89014,796.1905,763.1502,675.7143,-0.21954345703125,0.00872802734375,0.99945068359375,8.022613525390625,-3.431854248046875,4.613189697265625,1,1.0,1.0,1.0,1.0,55.00
2022-11-23 20:14:05.897,0.83310956,0.5447607,0.6096126,0.67172295,0.34552103,0.25756645,0.42031822,0.051043727,0.6360857,0.38750583,0.50681555,0.5834078,0.21823668,-0.2238533,-0.13010904,0.38820496,-0.24209139,-0.6887979,-0.5008803,-0.090834595,749.85345,810.293,798.60803,762.3443,556.8498,-0.22705078125,0.0164794921875,1.00494384765625,4.987030029296875,-2.295379638671875,4.598236083984375,1,1.0,1.0,1.0,1.0,55.00
2022-11-23 20:14:05.897,0.780819,0.77937293,0.8281467,0.67172295,0.3209661,0.47775066,0.62122345,0.051043727,0.6213753,0.44133288,0.5991264,0.5834078,0.21039979,-0.21789569,-0.12891042,0.38820496,-0.26192236,-0.6669108,-0.47104007,-0.090834595,813.91943,808.68134,799.81683,810.696,802.23444,-0.22705078125,0.0164794921875,1.00494384765625,4.987030029296875,-2.295379638671875,4.598236083984375,1,1.0,1.0,1.0,1.0,55.00
2022-11-23 20:14:05.899,0.780819,0.77937293,0.8281467,0.67172295,0.3209661,0.47775066,0.62122345,0.051043727,0.6213753,0.44133288,0.5991264,0.5834078,0.21039979,-0.21789569,-0.12891042,0.38820496,-0.26192236,-0.6669108,-0.47104007,-0.090834595,836.08057,810.293,794.57874,823.5897,1023.8461,-0.22705078125,0.0164794921875,1.00494384765625,4.987030029296875,-2.295379638671875,4.598236083984375,1,1.0,1.0,1.0,1.0,55.00
2022-11-23 20:14:05.899,0.780819,0.77937293,0.8281467,0.67172295,0.3209661,0.47775066,0.62122345,0.051043727,0.6213753,0.44133288,0.5991264,0.5834078,0.21039979,-0.21789569,-0.12891042,0.38820496,-0.26192236,-0.6669108,-0.47104007,-0.090834595,788.5348,813.1135,795.38464,786.9231,836.08057,-0.22705078125,0.0164794921875,1.00494384765625,4.987030029296875,-2.295379638671875,4.598236083984375,1,1.0,1.0,1.0,1.0,55.00
2022-11-23 20:14:05.899,0.780819,0.77937293,0.8281467,0.67172295,0.3209661,0.47775066,0.62122345,0.051043727,0.6213753,0.44133288,0.5991264,0.5834078,0.21039979,-0.21789569,-0.12891042,0.38820496,-0.26192236,-0.6669108,-0.47104007,-0.090834595,764.35895,813.1135,801.4286,770.80585,585.4579,-0.22705078125,0.0164794921875,1.00494384765625,4.987030029296875,-2.295379638671875,4.598236083984375,1,1.0,1.0,1.0,1.0,55.00
2022-11-23 20:14:05.899,0.780819,0.77937293,0.8281467,0.67172295,0.3209661,0.47775066,0.62122345,0.051043727,0.6213753,0.44133288,0.5991264,0.5834078,0.21039979,-0.21789569,-0.12891042,0.38820496,-0.26192236,-0.6669108,-0.47104007,-0.090834595,806.6667,810.293,801.4286,810.696,761.13556,-0.22705078125,0.0164794921875,1.00494384765625,4.987030029296875,-2.295379638671875,4.598236083984375,1,1.0,1.0,1.0,1.0,55.00
2022-11-23 20:14:05.900,0.780819,0.77937293,0.8281467,0.67172295,0.3209661,0.47775066,0.62122345,0.051043727,0.6213753,0.44133288,0.5991264,0.5834078,0.21039979,-0.21789569,-0.12891042,0.38820496,-0.26192236,-0.6669108,-0.47104007,-0.090834595,852.1978,810.293,801.02563,840.5128,1123.773,-0.22705078125,0.0164794921875,1.00494384765625,4.987030029296875,-2.295379638671875,4.598236083984375,1,1.0,1.0,1.0,1.0,55.00
2022-11-23 20:14:05.900,0.780819,0.77937293,0.8281467,0.67172295,0.3209661,0.47775066,0.62122345,0.051043727,0.6213753,0.44133288,0.5991264,0.5834078,0.21039979,-0.21789569,-0.12891042,0.38820496,-0.26192236,-0.6669108,-0.47104007,-0.090834595,819.5604,810.293,799.81683,808.68134,932.7839,-0.22705078125,0.0164794921875,1.00494384765625,4.987030029296875,-2.295379638671875,4.598236083984375,1,1.0,1.0,1.0,1.0,55.00
2022-11-23 20:14:05.900,0.780819,0.77937293,0.8281467,0.67172295,0.3209661,0.47775066,0.62122345,0.051043727,0.6213753,0.44133288,0.5991264,0.5834078,0.21039979,-0.21789569,-0.12891042,0.38820496,-0.26192236,-0.6669108,-0.47104007,-0.090834595,766.3736,806.26373,799.81683,771.2088,614.87177,-0.22705078125,0.0164794921875,1.00494384765625,4.987030029296875,-2.295379638671875,4.598236083984375,1,1.0,1.0,1.0,1.0,55.00
2022-11-23 20:14:05.900,0.780819,0.77937293,0.8281467,0.67172295,0.3209661,0.47775066,0.62122345,0.051043727,0.6213753,0.44133288,0.5991264,0.5834078,0.21039979,-0.21789569,-0.12891042,0.38820496,-0.26192236,-0.6669108,-0.47104007,-0.090834595,782.8938,806.26373,805.4579,786.52014,674.10254,-0.22705078125,0.0164794921875,1.00494384765625,4.987030029296875,-2.295379638671875,4.598236083984375,1,1.0,1.0,1.0,1.0,55.00
2022-11-23 20:14:05.901,0.780819,0.77937293,0.8281467,0.67172295,0.3209661,0.47775066,0.62122345,0.051043727,0.6213753,0.44133288,0.5991264,0.5834078,0.21039979,-0.21789569,-0.12891042,0.38820496,-0.26192236,-0.6669108,-0.47104007,-0.090834595,840.5128,807.8755,805.4579,829.6337,915.05493,-0.22705078125,0.0164794921875,1.00494384765625,4.987030029296875,-2.295379638671875,4.598236083984375,1,1.0,1.0,1.0,1.0,55.00
2022-11-23 20:14:05.901,0.780819,0.77937293,0.8281467,0.67172295,0.3209661,0.47775066,0.62122345,0.051043727,0.6213753,0.44133288,0.5991264,0.5834078,0.21039979,-0.21789569,-0.12891042,0.38820496,-0.26192236,-0.6669108,-0.47104007,-0.090834595,827.2161,807.8755,799.011,814.7253,876.3736,-0.22705078125,0.0164794921875,1.00494384765625,4.987030029296875,-2.295379638671875,4.598236083984375,1,1.0,1.0,1.0,1.0,55.00
2022-11-23 20:14:05.922,0.780819,0.77937293,0.8281467,0.67172295,0.3209661,0.47775066,0.62122345,0.051043727,0.6213753,0.44133288,0.5991264,0.5834078,0.21039979,-0.21789569,-0.12891042,0.38820496,-0.26192236,-0.6669108,-0.47104007,-0.090834595,763.95605,803.8461,799.011,767.5824,639.85345,-0.22705078125,0.0164794921875,1.00494384765625,4.987030029296875,-2.295379638671875,4.598236083984375,1,1.0,1.0,1.0,1.0,55.00
2022-11-23 20:14:05.922,0.780819,0.77937293,0.8281467,0.67172295,0.3209661,0.47775066,0.62122345,0.051043727,0.6213753,0.44133288,0.5991264,0.5834078,0.21039979,-0.21789569,-0.12891042,0.38820496,-0.26192236,-0.6669108,-0.47104007,-0.090834595,764.35895,806.26373,804.2491,782.8938,600.7692,-0.22705078125,0.0164794921875,1.00494384765625,4.987030029296875,-2.295379638671875,4.598236083984375,1,1.0,1.0,1.0,1.0,55.00
2022-11-23 20:14:05.923,0.780819,0.77937293,0.8281467,0.67172295,0.3209661,0.47775066,0.62122345,0.051043727,0.6213753,0.44133288,0.5991264,0.5834078,0.21039979,-0.21789569,-0.12891042,0.38820496,-0.26192236,-0.6669108,-0.47104007,-0.090834595,828.8278,807.8755,808.68134,822.7839,832.0513,-0.22705078125,0.0164794921875,1.00494384765625,4.987030029296875,-2.295379638671875,4.598236083984375,1,1.0,1.0,1.0,1.0,55.00
2022-11-23 20:14:05.923,0.780819,0.77937293,0.8281467,0.67172295,0.3209661,0.47775066,0.62122345,0.051043727,0.6213753,0.44133288,0.5991264,0.5834078,0.21039979,-0.21789569,-0.12891042,0.38820496,-0.26192236,-0.6669108,-0.47104007,-0.090834595,847.3626,803.44324,813.1135,821.5751,981.9414,-0.22705078125,0.0164794921875,1.00494384765625,4.987030029296875,-2.295379638671875,4.598236083984375,1,1.0,1.0,1.0,1.0,55.00
2022-11-23 20:14:05.923,0.780819,0.77937293,0.8281467,0.67172295,0.3209661,0.47775066,0.62122345,0.051043727,0.6213753,0.44133288,0.5991264,0.5834078,0.21039979,-0.21789569,-0.12891042,0.38820496,-0.26192236,-0.6669108,-0.47104007,-0.090834595,788.1319,803.44324,812.71063,784.10254,751.8681,-0.22705078125,0.0164794921875,1.00494384765625,4.987030029296875,-2.295379638671875,4.598236083984375,1,1.0,1.0,1.0,1.0,55.00
2022-11-23 20:14:05.924,0.780819,0.77937293,0.8281467,0.67172295,0.3209661,0.47775066,0.62122345,0.051043727,0.6213753,0.44133288,0.5991264,0.5834078,0.21039979,-0.21789569,-0.12891042,0.38820496,-0.26192236,-0.6669108,-0.47104007,-0.090834595,768.3883,806.6667,809.0842,774.83514,777.6557,-0.22705078125,0.0164794921875,1.00494384765625,4.987030029296875,-2.295379638671875,4.598236083984375,1,1.0,1.0,1.0,1.0,55.00
2022-11-23 20:14:05.924,0.780819,0.77937293,0.8281467,0.67172295,0.3209661,0.47775066,0.62122345,0.051043727,0.6213753,0.44133288,0.5991264,0.5834078,0.21039979,-0.21789569,-0.12891042,0.38820496,-0.26192236,-0.6669108,-0.47104007,-0.090834595,823.1868,806.6667,811.0989,826.8132,1200.7325,-0.22705078125,0.0164794921875,1.00494384765625,4.987030029296875,-2.295379638671875,4.598236083984375,1,1.0,1.0,1.0,1.0,55.00
2022-11-23 20:14:05.924,0.780819,0.77937293,0.8281467,0.67172295,0.3209661,0.47775066,0.62122345,0.051043727,0.6213753,0.44133288,0.5991264,0.5834078,0.21039979,-0.21789569,-0.12891042,0.38820496,-0.26192236,-0.6669108,-0.47104007,-0.090834595,850.58606,806.26373,805.05493,839.304,983.95605,-0.22705078125,0.0164794921875,1.00494384765625,4.987030029296875,-2.295379638671875,4.598236083984375,1,1.0,1.0,1.0,1.0,55.00
2022-11-23 20:14:05.924,0.780819,0.77937293,0.8281467,0.67172295,0.3209661,0.47775066,0.62122345,0.051043727,0.6213753,0.44133288,0.5991264,0.5834078,0.21039979,-0.21789569,-0.12891042,0.38820496,-0.26192236,-0.6669108,-0.47104007,-0.090834595,797.8022,807.0696,798.60803,790.9524,675.7143,-0.22705078125,0.0164794921875,1.00494384765625,4.987030029296875,-2.295379638671875,4.598236083984375,1,1.0,1.0,1.0,1.0,55.00
2022-11-23 20:14:05.925,0.780819,0.77937293,0.8281467,0.67172295,0.3209661,0.47775066,0.62122345,0.051043727,0.6213753,0.44133288,0.5991264,0.5834078,0.21039979,-0.21789569,-0.12891042,0.38820496,-0.26192236,-0.6669108,-0.47104007,-0.090834595,757.1062,804.65204,803.8461,771.2088,679.34064,-0.22705078125,0.0164794921875,1.00494384765625,4.987030029296875,-2.295379638671875,4.598236083984375,1,1.0,1.0,1.0,1.0,55.00
2022-11-23 20:14:05.925,0.780819,0.77937293,0.8281467,0.67172295,0.3209661,0.47775066,0.62122345,0.051043727,0.6213753,0.44133288,0.5991264,0.5834078,0.21039979,-0.21789569,-0.12891042,0.38820496,-0.26192236,-0.6669108,-0.47104007,-0.090834595,789.7436,804.2491,805.05493,797.3993,686.5934,-0.22705078125,0.0164794921875,1.00494384765625,4.987030029296875,-2.295379638671875,4.598236083984375,1,1.0,1.0,1.0,1.0,55.00
2022-11-23 20:14:05.925,0.780819,0.77937293,0.8281467,0.67172295,0.3209661,0.47775066,0.62122345,0.051043727,0.6213753,0.44133288,0.5991264,0.5834078,0.21039979,-0.21789569,-0.12891042,0.38820496,-0.26192236,-0.6669108,-0.47104007,-0.090834595,832.4542,800.2198,802.6374,823.5897,805.05493,-0.22705078125,0.0164794921875,1.00494384765625,4.987030029296875,-2.295379638671875,4.598236083984375,1,1.0,1.0,1.0,1.0,55.00
2022-11-23 20:14:05.972,0.780819,0.77937293,0.8281467,0.67172295,0.3209661,0.47775066,0.62122345,0.051043727,0.6213753,0.44133288,0.5991264,0.5834078,0.21039979,-0.21789569,-0.12891042,0.38820496,-0.26192236,-0.6669108,-0.47104007,-0.090834595,805.4579,801.8315,803.44324,799.81683,808.68134,-0.21600341796875,0.01275634765625,1.00640869140625,2.190704345703125,-4.373931884765625,4.373931884765625,1,1.0,1.0,1.0,1.0,55.00
2022-11-23 20:14:05.972,0.780819,0.77937293,0.8281467,0.67172295,0.3209661,0.47775066,0.62122345,0.051043727,0.6213753,0.44133288,0.5991264,0.5834078,0.21039979,-0.21789569,-0.12891042,0.38820496,-0.26192236,-0.6669108,-0.47104007,-0.090834595,751.06226,806.6667,802.6374,762.3443,654.7619,-0.21600341796875,0.01275634765625,1.00640869140625,2.190704345703125,-4.373931884765625,4.373931884765625,1,1.0,1.0,1.0,1.0,55.00
2022-11-23 20:14:05.973,0.780819,0.77937293,0.8281467,0.67172295,0.3209661,0.47775066,0.62122345,0.051043727,0.6213753,0.44133288,0.5991264,0.5834078,0.21039979,-0.21789569,-0.12891042,0.38820496,-0.26192236,-0.6669108,-0.47104007,-0.090834595,767.98535,803.44324,794.9817,779.2674,650.32965,-0.21600341796875,0.01275634765625,1.00640869140625,2.190704345703125,-4.373931884765625,4.373931884765625,1,1.0,1.0,1.0,1.0,55.00
2022-11-23 20:14:05.973,0.71088964,0.932068,0.9782609,0.67172295,0.28848976,0.61584765,0.748245,0.051043727,0.60351384,0.4427107,0.61495954,0.5834078,0.2058385,-0.20318492,-0.12716886,0.38820496,-0.28729254,-0.6458342,-0.44041213,-0.090834595,830.0366,801.02563,793.36993,816.337,801.8315,-0.21600341796875,0.01275634765625,1.00640869140625,2.190704345703125,-4.373931884765625,4.373931884765625,1,1.0,1.0,1.0,1.0,55.00
2022-11-23 20:14:05.974,0.71088964,0.932068,0.9782609,0.67172295,0.28848976,0.61584765,0.748245,0.051043727,0.60351384,0.4427107,0.61495954,0.5834078,0.2058385,-0.20318492,-0.12716886,0.38820496,-0.28729254,-0.6458342,-0.44041213,-0.090834595,821.5751,804.2491,799.81683,805.8608,814.3223,-0.21600341796875,0.01275634765625,1.00640869140625,2.190704345703125,-4.373931884765625,4.373931884765625,1,1.0,1.0,1.0,1.0,55.00
2022-11-23 20:14:05.974,0.71088964,0.932068,0.9782609,0.67172295,0.28848976,0.61584765,0.748245,0.051043727,0.60351384,0.4427107,0.61495954,0.5834078,0.2058385,-0.20318492,-0.12716886,0.38820496,-0.28729254,-0.6458342,-0.44041213,-0.090834595,758.71796,805.4579,802.6374,763.5531,706.337,-0.21600341796875,0.01275634765625,1.00640869140625,2.190704345703125,-4.373931884765625,4.373931884765625,1,1.0,1.0,1.0,1.0,55.00
2022-11-23 20:14:05.975,0.71088964,0.932068,0.9782609,0.67172295,0.28848976,0.61584765,0.748245,0.051043727,0.60351384,0.4427107,0.61495954,0.5834078,0.2058385,-0.20318492,-0.12716886,0.38820496,-0.28729254,-0.6458342,-0.44041213,-0.090834595,758.71796,808.2784,803.0403,765.56775,719.2308,-0.21600341796875,0.01275634765625,1.00640869140625,2.190704345703125,-4.373931884765625,4.373931884765625,1,1.0,1.0,1.0,1.0,55.00
2022-11-23 20:14:05.975,0.71088964,0.932068,0.9782609,0.67172295,0.28848976,0.61584765,0.748245,0.051043727,0.60351384,0.4427107,0.61495954,0.5834078,0.2058385,-0.20318492,-0.12716886,0.38820496,-0.28729254,-0.6458342,-0.44041213,-0.090834595,817.9487,813.5165,805.4579,805.05493,883.6264,-0.21600341796875,0.01275634765625,1.00640869140625,2.190704345703125,-4.373931884765625,4.373931884765625,1,1.0,1.0,1.0,1.0,55.00
2022-11-23 20:14:05.975,0.71088964,0.932068,0.9782609,0.67172295,0.28848976,0.61584765,0.748245,0.051043727,0.60351384,0.4427107,0.61495954,0.5834078,0.2058385,-0.20318492,-0.12716886,0.38820496,-0.28729254,-0.6458342,-0.44041213,-0.090834595,830.0366,811.50183,806.26373,815.12823,917.8755,-0.21600341796875,0.01275634765625,1.00640869140625,2.190704345703125,-4.373931884765625,4.373931884765625,1,1.0,1.0,1.0,1.0,55.00
2022-11-23 20:14:05.975,0.71088964,0.932068,0.9782609,0.67172295,0.28848976,0.61584765,0.748245,0.051043727,0.60351384,0.4427107,0.61495954,0.5834078,0.2058385,-0.20318492,-0.12716886,0.38820496,-0.28729254,-0.6458342,-0.44041213,-0.090834595,775.64105,812.3077,808.68134,790.14655,973.47986,-0.21600341796875,0.01275634765625,1.00640869140625,2.190704345703125,-4.373931884765625,4.373931884765625,1,1.0,1.0,1.0,1.0,55.00
2022-11-23 20:14:05.976,0.71088964,0.932068,0.9782609,0.67172295,0.28848976,0.61584765,0.748245,0.051043727,0.60351384,0.4427107,0.61495954,0.5834078,0.2058385,-0.20318492,-0.12716886,0.38820496,-0.28729254,-0.6458342,-0.44041213,-0.090834595,756.30035,814.7253,811.0989,776.8498,805.05493,-0.21600341796875,0.01275634765625,1.00640869140625,2.190704345703125,-4.373931884765625,4.373931884765625,1,1.0,1.0,1.0,1.0,55.00
2022-11-23 20:14:05.976,0.71088964,0.932068,0.9782609,0.67172295,0.28848976,0.61584765,0.748245,0.051043727,0.60351384,0.4427107,0.61495954,0.5834078,0.2058385,-0.20318492,-0.12716886,0.38820496,-0.28729254,-0.6458342,-0.44041213,-0.090834595,794.57874,808.68134,806.6667,799.81683,703.1135,-0.21600341796875,0.01275634765625,1.00640869140625,2.190704345703125,-4.373931884765625,4.373931884765625,1,1.0,1.0,1.0,1.0,55.00
2022-11-23 20:14:06.047,0.71088964,0.932068,0.9782609,0.67172295,0.28848976,0.61584765,0.748245,0.051043727,0.60351384,0.4427107,0.61495954,0.5834078,0.2058385,-0.20318492,-0.12716886,0.38820496,-0.28729254,-0.6458342,-0.44041213,-0.090834595,828.4249,803.8461,803.44324,818.3516,902.1612,-0.213134765625,0.0052490234375,0.9971923828125,1.57012939453125,-3.985137939453125,2.67669677734375,1,1.0,1.0,1.0,1.0,55.00
2022-11-23 20:14:06.047,0.71088964,0.932068,0.9782609,0.67172295,0.28848976,0.61584765,0.748245,0.051043727,0.60351384,0.4427107,0.61495954,0.5834078,0.2058385,-0.20318492,-0.12716886,0.38820496,-0.28729254,-0.6458342,-0.44041213,-0.090834595,794.17584,808.2784,804.2491,794.57874,862.674,-0.213134765625,0.0052490234375,0.9971923828125,1.57012939453125,-3.985137939453125,2.67669677734375,1,1.0,1.0,1.0,1.0,55.00
2022-11-23 20:14:06.048,0.71088964,0.932068,0.9782609,0.67172295,0.28848976,0.61584765,0.748245,0.051043727,0.60351384,0.4427107,0.61495954,0.5834078,0.2058385,-0.20318492,-0.12716886,0.38820496,-0.28729254,-0.6458342,-0.44041213,-0.090834595,738.97437,807.8755,799.81683,760.32965,643.47986,-0.213134765625,0.0052490234375,0.9971923828125,1.57012939453125,-3.985137939453125,2.67669677734375,1,1.0,1.0,1.0,1.0,55.00
2022-11-23 20:14:06.048,0.71088964,0.932068,0.9782609,0.67172295,0.28848976,0.61584765,0.748245,0.051043727,0.60351384,0.4427107,0.61495954,0.5834078,0.2058385,-0.20318492,-0.12716886,0.38820496,-0.28729254,-0.6458342,-0.44041213,-0.090834595,774.83514,807.0696,800.2198,787.72894,680.9524,-0.213134765625,0.0052490234375,0.9971923828125,1.57012939453125,-3.985137939453125,2.67669677734375,1,1.0,1.0,1.0,1.0,55.00
2022-11-23 20:14:06.048,0.71088964,0.932068,0.9782609,0.67172295,0.28848976,0.61584765,0.748245,0.051043727,0.60351384,0.4427107,0.61495954,0.5834078,0.2058385,-0.20318492,-0.12716886,0.38820496,-0.28729254,-0.6458342,-0.44041213,-0.090834595,836.4835,806.26373,804.65204,830.0366,938.8278,-0.213134765625,0.0052490234375,0.9971923828125,1.57012939453125,-3.985137939453125,2.67669677734375,1,1.0,1.0,1.0,1.0,55.00
2022-11-23 20:14:06.048,0.71088964,0.932068,0.9782609,0.67172295,0.28848976,0.61584765,0.748245,0.051043727,0.60351384,0.4427107,0.61495954,0.5834078,0.2058385,-0.20318492,-0.12716886,0.38820496,-0.28729254,-0.6458342,-0.44041213,-0.090834595,814.3223,806.26373,808.68134,815.12823,967.03296,-0.213134765625,0.0052490234375,0.9971923828125,1.57012939453125,-3.985137939453125,2.67669677734375,1,1.0,1.0,1.0,1.0,55.00
2022-11-23 20:14:06.049,0.71088964,0.932068,0.9782609,0.67172295,0.28848976,0.61584765,0.748245,0.051043727,0.60351384,0.4427107,0.61495954,0.5834078,0.2058385,-0.20318492,-0.12716886,0.38820496,-0.28729254,-0.6458342,-0.44041213,-0.090834595,753.47986,808.68134,813.1135,778.86444,759.12085,-0.213134765625,0.0052490234375,0.9971923828125,1.57012939453125,-3.985137939453125,2.67669677734375,1,1.0,1.0,1.0,1.0,55.00
2022-11-23 20:14:06.049,0.71088964,0.932068,0.9782609,0.67172295,0.28848976,0.61584765,0.748245,0.051043727,0.60351384,0.4427107,0.61495954,0.5834078,0.2058385,-0.20318492,-0.12716886,0.38820496,-0.28729254,-0.6458342,-0.44041213,-0.090834595,768.3883,809.0842,813.5165,786.9231,666.8498,-0.213134765625,0.0052490234375,0.9971923828125,1.57012939453125,-3.985137939453125,2.67669677734375,1,1.0,1.0,1.0,1.0,55.00
2022-11-23 20:14:06.049,0.71088964,0.932068,0.9782609,0.67172295,0.28848976,0.61584765,0.748245,0.051043727,0.60351384,0.4427107,0.61495954,0.5834078,0.2058385,-0.20318492,-0.12716886,0.38820496,-0.28729254,-0.6458342,-0.44041213,-0.090834595,834.4689,807.8755,810.696,829.6337,932.7839,-0.213134765625,0.0052490234375,0.9971923828125,1.57012939453125,-3.985137939453125,2.67669677734375,1,1.0,1.0,1.0,1.0,55.00
2022-11-23 20:14:06.049,0.71088964,0.932068,0.9782609,0.67172295,0.28848976,0.61584765,0.748245,0.051043727,0.60351384,0.4427107,0.61495954,0.5834078,0.2058385,-0.20318492,-0.12716886,0.38820496,-0.28729254,-0.6458342,-0.44041213,-0.090834595,828.8278,809.0842,807.0696,819.9634,1096.7766,-0.213134765625,0.0052490234375,0.9971923828125,1.57012939453125,-3.985137939453125,2.67669677734375,1,1.0,1.0,1.0,1.0,55.00
2022-11-23 20:14:06.050,0.71088964,0.932068,0.9782609,0.67172295,0.28848976,0.61584765,0.748245,0.051043727,0.60351384,0.4427107,0.61495954,0.5834078,0.2058385,-0.20318492,-0.12716886,0.38820496,-0.28729254,-0.6458342,-0.44041213,-0.090834595,763.1502,805.05493,805.8608,774.83514,750.2564,-0.213134765625,0.0052490234375,0.9971923828125,1.57012939453125,-3.985137939453125,2.67669677734375,1,1.0,1.0,1.0,1.0,55.00
2022-11-23 20:14:06.050,0.71088964,0.932068,0.9782609,0.67172295,0.28848976,0.61584765,0.748245,0.051043727,0.60351384,0.4427107,0.61495954,0.5834078,0.2058385,-0.20318492,-0.12716886,0.38820496,-0.28729254,-0.6458342,-0.44041213,-0.090834595,761.9414,803.8461,806.6667,780.87915,613.2601,-0.213134765625,0.0052490234375,0.9971923828125,1.57012939453125,-3.985137939453125,2.67669677734375,1,1.0,1.0,1.0,1.0,55.00
2022-11-23 20:14:06.072,0.71088964,0.932068,0.9782609,0.67172295,0.28848976,0.61584765,0.748245,0.051043727,0.60351384,0.4427107,0.61495954,0.5834078,0.2058385,-0.20318492,-0.12716886,0.38820496,-0.28729254,-0.6458342,-0.44041213,-0.090834595,824.3956,805.8608,801.8315,821.978,913.44324,-0.2159423828125,0.00250244140625,0.99285888671875,2.714080810546875,-2.43743896484375,0.680389404296875,1,1.0,1.0,1.0,1.0,55.00
2022-11-23 20:14:06.072,0.71088964,0.932068,0.9782609,0.67172295,0.28848976,0.61584765,0.748245,0.051043727,0.60351384,0.4427107,0.61495954,0.5834078,0.2058385,-0.20318492,-0.12716886,0.38820496,-0.28729254,-0.6458342,-0.44041213,-0.090834595,837.28937,806.6667,804.2491,828.022,961.39197,-0.2159423828125,0.00250244140625,0.99285888671875,2.714080810546875,-2.43743896484375,0.680389404296875,1,1.0,1.0,1.0,1.0,55.00
2022-11-23 20:14:06.073,0.71088964,0.932068,0.9782609,0.67172295,0.28848976,0.61584765,0.748245,0.051043727,0.60351384,0.4427107,0.61495954,0.5834078,0.2058385,-0.20318492,-0.12716886,0.38820496,-0.28729254,-0.6458342,-0.44041213,-0.090834595,785.7143,806.26373,803.8461,794.57874,733.3333,-0.2159423828125,0.00250244140625,0.99285888671875,2.714080810546875,-2.43743896484375,0.680389404296875,1,1.0,1.0,1.0,1.0,55.00
2022-11-23 20:14:06.073,0.71088964,0.932068,0.9782609,0.67172295,0.28848976,0.61584765,0.748245,0.051043727,0.60351384,0.4427107,0.61495954,0.5834078,0.2058385,-0.20318492,-0.12716886,0.38820496,-0.28729254,-0.6458342,-0.44041213,-0.090834595,760.32965,805.4579,803.8461,777.6557,671.685,-0.2159423828125,0.00250244140625,0.99285888671875,2.714080810546875,-2.43743896484375,0.680389404296875,1,1.0,1.0,1.0,1.0,55.00
2022-11-23 20:14:06.073,0.71088964,0.932068,0.9782609,0.67172295,0.28848976,0.61584765,0.748245,0.051043727,0.60351384,0.4427107,0.61495954,0.5834078,0.2058385,-0.20318492,-0.12716886,0.38820496,-0.28729254,-0.6458342,-0.44041213,-0.090834595,808.2784,809.4872,807.47253,808.2784,795.78754,-0.2159423828125,0.00250244140625,0.99285888671875,2.714080810546875,-2.43743896484375,0.680389404296875,1,1.0,1.0,1.0,1.0,55.00
2022-11-23 20:14:06.073,0.6463443,1.0158614,1.0622561,1.0198581,0.2664169,0.6864947,0.8121111,0.7801124,0.5983496,0.4427107,0.61495954,0.8846119,0.21301551,-0.18279375,-0.1259574,0.4294087,-0.31363368,-0.6345883,-0.4145961,-0.07635767,848.5714,809.89014,807.47253,831.2454,959.3773,-0.2159423828125,0.00250244140625,0.99285888671875,2.714080810546875,-2.43743896484375,0.680389404296875,1,1.0,1.0,1.0,1.0,55.00
2022-11-23 20:14:06.075,0.6463443,1.0158614,1.0622561,1.0198581,0.2664169,0.6864947,0.8121111,0.7801124,0.5983496,0.4427107,0.61495954,0.8846119,0.21301551,-0.18279375,-0.1259574,0.4294087,-0.31363368,-0.6345883,-0.4145961,-0.07635767,809.4872,808.68134,808.2784,804.65204,915.05493,-0.2159423828125,0.00250244140625,0.99285888671875,2.714080810546875,-2.43743896484375,0.680389404296875,1,1.0,1.0,1.0,1.0,55.00
2022-11-23 20:14:06.075,0.6463443,1.0158614,1.0622561,1.0198581,0.2664169,0.6864947,0.8121111,0.7801124,0.5983496,0.4427107,0.61495954,0.8846119,0.21301551,-0.18279375,-0.1259574,0.4294087,-0.31363368,-0.6345883,-0.4145961,-0.07635767,755.4945,809.89014,809.89014,772.4176,647.50916,-0.2159423828125,0.00250244140625,0.99285888671875,2.714080810546875,-2.43743896484375,0.680389404296875,1,1.0,1.0,1.0,1.0,55.00
2022-11-23 20:14:06.075,0.6463443,1.0158614,1.0622561,1.0198581,0.2664169,0.6864947,0.8121111,0.7801124,0.5983496,0.4427107,0.61495954,0.8846119,0.21301551,-0.18279375,-0.1259574,0.4294087,-0.31363368,-0.6345883,-0.4145961,-0.07635767,779.2674,810.696,811.50183,794.17584,714.3956,-0.2159423828125,0.00250244140625,0.99285888671875,2.714080810546875,-2.43743896484375,0.680389404296875,1,1.0,1.0,1.0,1.0,55.00
2022-11-23 20:14:06.075,0.6463443,1.0158614,1.0622561,1.0198581,0.2664169,0.6864947,0.8121111,0.7801124,0.5983496,0.4427107,0.61495954,0.8846119,0.21301551,-0.18279375,-0.1259574,0.4294087,-0.31363368,-0.6345883,-0.4145961,-0.07635767,844.94507,811.0989,811.0989,827.2161,957.76556,-0.2159423828125,0.00250244140625,0.99285888671875,2.714080810546875,-2.43743896484375,0.680389404296875,1,1.0,1.0,1.0,1.0,55.00
2022-11-23 20:14:06.076,0.6463443,1.0158614,1.0622561,1.0198581,0.2664169,0.6864947,0.8121111,0.7801124,0.5983496,0.4427107,0.61495954,0.8846119,0.21301551,-0.18279375,-0.1259574,0.4294087,-0.31363368,-0.6345883,-0.4145961,-0.07635767,832.8571,809.4872,808.68134,815.9341,981.53845,-0.2159423828125,0.00250244140625,0.99285888671875,2.714080810546875,-2.43743896484375,0.680389404296875,1,1.0,1.0,1.0,1.0,55.00
2022-11-23 20:14:06.076,0.6463443,1.0158614,1.0622561,1.0198581,0.2664169,0.6864947,0.8121111,0.7801124,0.5983496,0.4427107,0.61495954,0.8846119,0.21301551,-0.18279375,-0.1259574,0.4294087,-0.31363368,-0.6345883,-0.4145961,-0.07635767,769.19415,807.47253,805.8608,776.8498,861.06226,-0.2159423828125,0.00250244140625,0.99285888671875,2.714080810546875,-2.43743896484375,0.680389404296875,1,1.0,1.0,1.0,1.0,55.00
2022-11-23 20:14:06.122,0.6463443,1.0158614,1.0622561,1.0198581,0.2664169,0.6864947,0.8121111,0.7801124,0.5983496,0.4427107,0.61495954,0.8846119,0.21301551,-0.18279375,-0.1259574,0.4294087,-0.31363368,-0.6345883,-0.4145961,-0.07635767,777.6557,807.8755,807.0696,788.93774,879.19415,-0.21673583984375,0.00341796875,1.00140380859375,3.349609375,-2.100982666015625,-1.3458251953125,1,1.0,1.0,1.0,1.0,55.00
2022-11-23 20:14:06.123,0.6463443,1.0158614,1.0622561,1.0198581,0.2664169,0.6864947,0.8121111,0.7801124,0.5983496,0.4427107,0.61495954,0.8846119,0.21301551,-0.18279375,-0.1259574,0.4294087,-0.31363368,-0.6345883,-0.4145961,-0.07635767,840.10986,809.4872,804.2491,826.8132,928.7546,-0.21673583984375,0.00341796875,1.00140380859375,3.349609375,-2.100982666015625,-1.3458251953125,1,1.0,1.0,1.0,1.0,55.00
2022-11-23 20:14:06.123,0.6463443,1.0158614,1.0622561,1.0198581,0.2664169,0.6864947,0.8121111,0.7801124,0.5983496,0.4427107,0.61495954,0.8846119,0.21301551,-0.18279375,-0.1259574,0.4294087,-0.31363368,-0.6345883,-0.4145961,-0.07635767,845.7509,807.0696,804.65204,815.5311,824.3956,-0.21673583984375,0.00341796875,1.00140380859375,3.349609375,-2.100982666015625,-1.3458251953125,1,1.0,1.0,1.0,1.0,55.00
2022-11-23 20:14:06.123,0.6463443,1.0158614,1.0622561,1.0198581,0.2664169,0.6864947,0.8121111,0.7801124,0.5983496,0.4427107,0.61495954,0.8846119,0.21301551,-0.18279375,-0.1259574,0.4294087,-0.31363368,-0.6345883,-0.4145961,-0.07635767,789.34064,806.26373,807.47253,769.19415,678.5348,-0.21673583984375,0.00341796875,1.00140380859375,3.349609375,-2.100982666015625,-1.3458251953125,1,1.0,1.0,1.0,1.0,55.00
2022-11-23 20:14:06.123,0.6463443,1.0158614,1.0622561,1.0198581,0.2664169,0.6864947,0.8121111,0.7801124,0.5983496,0.4427107,0.61495954,0.8846119,0.21301551,-0.18279375,-0.1259574,0.4294087,-0.31363368,-0.6345883,-0.4145961,-0.07635767,775.2381,803.8461,802.6374,763.1502,749.45056,-0.21673583984375,0.00341796875,1.00140380859375,3.349609375,-2.100982666015625,-1.3458251953125,1,1.0,1.0,1.0,1.0,55.00
2022-11-23 20:14:06.124,0.6463443,1.0158614,1.0622561,1.0198581,0.2664169,0.6864947,0.8121111,0.7801124,0.5983496,0.4427107,0.61495954,0.8846119,0.21301551,-0.18279375,-0.1259574,0.4294087,-0.31363368,-0.6345883,-0.4145961,-0.07635767,825.2015,797.3993,802.23444,808.2784,907.3993,-0.21673583984375,0.00341796875,1.00140380859375,3.349609375,-2.100982666015625,-1.3458251953125,1,1.0,1.0,1.0,1.0,55.00
2022-11-23 20:14:06.124,0.6463443,1.0158614,1.0622561,1.0198581,0.2664169,0.6864947,0.8121111,0.7801124,0.5983496,0.4427107,0.61495954,0.8846119,0.21301551,-0.18279375,-0.1259574,0.4294087,-0.31363368,-0.6345883,-0.4145961,-0.07635767,845.34796,803.0403,805.05493,826.4103,1007.326,-0.21673583984375,0.00341796875,1.00140380859375,3.349609375,-2.100982666015625,-1.3458251953125,1,1.0,1.0,1.0,1.0,55.00
