TimeStamp,Delta_TP9,Delta_AF7,Delta_AF8,Delta_TP10,Theta_TP9,Theta_AF7,Theta_AF8,Theta_TP10,Alpha_TP9,Alpha_AF7,Alpha_AF8,Alpha_TP10,Beta_TP9,Beta_AF7,Beta_AF8,Beta_TP10,Gamma_TP9,Gamma_AF7,Gamma_AF8,Gamma_TP10,RAW_TP9,RAW_AF7,RAW_AF8,RAW_TP10,AUX_RIGHT,Accelerometer_X,Accelerometer_Y,Accelerometer_Z,Gyro_X,Gyro_Y,Gyro_Z,HeadBandOn,HSI_TP9,HSI_AF7,HSI_AF8,HSI_TP10,Battery,Elements
2022-11-23 20:14:59.596,0.5330964,-0.35106874,-0.10147331,0.7364603,0.038988564,-0.28867316,-0.09458602,0.4587294,0.8960293,0.42144257,0.4525576,0.8215696,0.30630943,-0.23915456,0.07514317,0.33564225,-0.007856475,-0.5554592,-0.38624895,-0.05998013,796.5934,816.7399,809.89014,805.8608,660.0,-0.2039794921875,-0.0137939453125,0.9989013671875,3.99261474609375,-0.01495361328125,0.515899658203125,1,1.0,1.0,1.0,1.0,55.00
2022-11-23 20:14:59.597,0.5330964,-0.35106874,-0.10147331,0.7364603,0.038988564,-0.28867316,-0.09458602,0.4587294,0.8960293,0.42144257,0.4525576,0.8215696,0.30630943,-0.23915456,0.07514317,0.33564225,-0.007856475,-0.5554592,-0.38624895,-0.05998013,852.1978,820.3663,810.293,840.5128,820.7692,-0.2039794921875,-0.0137939453125,0.9989013671875,3.99261474609375,-0.01495361328125,0.515899658203125,1,1.0,1.0,1.0,1.0,55.00
2022-11-23 20:14:59.597,0.5330964,-0.35106874,-0.10147331,0.7364603,0.038988564,-0.28867316,-0.09458602,0.4587294,0.8960293,0.42144257,0.4525576,0.8215696,0.30630943,-0.23915456,0.07514317,0.33564225,-0.007856475,-0.5554592,-0.38624895,-0.05998013,844.1392,821.1722,816.337,834.4689,985.56775,-0.2039794921875,-0.0137939453125,0.9989013671875,3.99261474609375,-0.01495361328125,0.515899658203125,1,1.0,1.0,1.0,1.0,55.00
2022-11-23 20:14:59.597,0.552096,-0.34351918,0.0047504515,0.73768896,0.20368427,-0.30327848,-0.044054788,0.558564,0.9630277,0.48413053,0.49752665,0.9515917,0.30633816,-0.24407157,0.073818736,0.34142002,-0.016138645,-0.5434754,-0.37872088,-0.057961643,792.96704,819.9634,817.5458,792.5641,855.42126,-0.2039794921875,-0.0137939453125,0.9989013671875,3.99261474609375,-0.01495361328125,0.515899658203125,1,1.0,1.0,1.0,1.0,55.00
2022-11-23 20:14:59.598,0.552096,-0.34351918,0.0047504515,0.73768896,0.20368427,-0.30327848,-0.044054788,0.558564,0.9630277,0.48413053,0.49752665,0.9515917,0.30633816,-0.24407157,0.073818736,0.34142002,-0.016138645,-0.5434754,-0.37872088,-0.057961643,790.14655,817.9487,811.9048,791.75824,758.71796,-0.2039794921875,-0.0137939453125,0.9989013671875,3.99261474609375,-0.01495361328125,0.515899658203125,1,1.0,1.0,1.0,1.0,55.00
2022-11-23 20:14:59.599,0.552096,-0.34351918,0.0047504515,0.73768896,0.20368427,-0.30327848,-0.044054788,0.558564,0.9630277,0.48413053,0.49752665,0.9515917,0.30633816,-0.24407157,0.073818736,0.34142002,-0.016138645,-0.5434754,-0.37872088,-0.057961643,838.9011,817.9487,811.50183,834.0659,864.2857,-0.2039794921875,-0.0137939453125,0.9989013671875,3.99261474609375,-0.01495361328125,0.515899658203125,1,1.0,1.0,1.0,1.0,55.00
2022-11-23 20:14:59.599,0.552096,-0.34351918,0.0047504515,0.73768896,0.20368427,-0.30327848,-0.044054788,0.558564,0.9630277,0.48413053,0.49752665,0.9515917,0.30633816,-0.24407157,0.073818736,0.34142002,-0.016138645,-0.5434754,-0.37872088,-0.057961643,855.82416,822.381,811.0989,838.9011,1037.5458,-0.2039794921875,-0.0137939453125,0.9989013671875,3.99261474609375,-0.01495361328125,0.515899658203125,1,1.0,1.0,1.0,1.0,55.00
2022-11-23 20:14:59.599,0.552096,-0.34351918,0.0047504515,0.73768896,0.20368427,-0.30327848,-0.044054788,0.558564,0.9630277,0.48413053,0.49752665,0.9515917,0.30633816,-0.24407157,0.073818736,0.34142002,-0.016138645,-0.5434754,-0.37872088,-0.057961643,815.9341,821.1722,808.68134,806.26373,865.4945,-0.2039794921875,-0.0137939453125,0.9989013671875,3.99261474609375,-0.01495361328125,0.515899658203125,1,1.0,1.0,1.0,1.0,55.00
2022-11-23 20:14:59.599,0.552096,-0.34351918,0.0047504515,0.73768896,0.20368427,-0.30327848,-0.044054788,0.558564,0.9630277,0.48413053,0.49752665,0.9515917,0.30633816,-0.24407157,0.073818736,0.34142002,-0.016138645,-0.5434754,-0.37872088,-0.057961643,788.5348,817.9487,810.696,797.3993,529.45056,-0.2039794921875,-0.0137939453125,0.9989013671875,3.99261474609375,-0.01495361328125,0.515899658203125,1,1.0,1.0,1.0,1.0,55.00
2022-11-23 20:14:59.600,0.552096,-0.34351918,0.0047504515,0.73768896,0.20368427,-0.30327848,-0.044054788,0.558564,0.9630277,0.48413053,0.49752665,0.9515917,0.30633816,-0.24407157,0.073818736,0.34142002,-0.016138645,-0.5434754,-0.37872088,-0.057961643,838.0952,821.1722,811.0989,825.6044,668.0586,-0.2039794921875,-0.0137939453125,0.9989013671875,3.99261474609375,-0.01495361328125,0.515899658203125,1,1.0,1.0,1.0,1.0,55.00
2022-11-23 20:14:59.600,0.552096,-0.34351918,0.0047504515,0.73768896,0.20368427,-0.30327848,-0.044054788,0.558564,0.9630277,0.48413053,0.49752665,0.9515917,0.30633816,-0.24407157,0.073818736,0.34142002,-0.016138645,-0.5434754,-0.37872088,-0.057961643,875.56775,819.9634,814.3223,842.1245,860.2564,-0.2039794921875,-0.0137939453125,0.9989013671875,3.99261474609375,-0.01495361328125,0.515899658203125,1,1.0,1.0,1.0,1.0,55.00
2022-11-23 20:14:59.600,0.552096,-0.34351918,0.0047504515,0.73768896,0.20368427,-0.30327848,-0.044054788,0.558564,0.9630277,0.48413053,0.49752665,0.9515917,0.30633816,-0.24407157,0.073818736,0.34142002,-0.016138645,-0.5434754,-0.37872088,-0.057961643,823.5897,815.9341,815.5311,819.15753,750.2564,-0.2039794921875,-0.0137939453125,0.9989013671875,3.99261474609375,-0.01495361328125,0.515899658203125,1,1.0,1.0,1.0,1.0,55.00
2022-11-23 20:14:59.649,0.552096,-0.34351918,0.0047504515,0.73768896,0.20368427,-0.30327848,-0.044054788,0.558564,0.9630277,0.48413053,0.49752665,0.9515917,0.30633816,-0.24407157,0.073818736,0.34142002,-0.016138645,-0.5434754,-0.37872088,-0.057961643,776.8498,815.5311,811.0989,794.57874,643.47986,-0.211181640625,-0.00445556640625,0.9932861328125,5.48797607421875,0.381317138671875,1.024322509765625,1,1.0,1.0,1.0,1.0,55.00
2022-11-23 20:14:59.649,0.552096,-0.34351918,0.0047504515,0.73768896,0.20368427,-0.30327848,-0.044054788,0.558564,0.9630277,0.48413053,0.49752665,0.9515917,0.30633816,-0.24407157,0.073818736,0.34142002,-0.016138645,-0.5434754,-0.37872088,-0.057961643,806.6667,815.5311,809.0842,813.91943,694.65204,-0.211181640625,-0.00445556640625,0.9932861328125,5.48797607421875,0.381317138671875,1.024322509765625,1,1.0,1.0,1.0,1.0,55.00
2022-11-23 20:14:59.649,0.552096,-0.34351918,0.0047504515,0.73768896,0.20368427,-0.30327848,-0.044054788,0.558564,0.9630277,0.48413053,0.49752665,0.9515917,0.30633816,-0.24407157,0.073818736,0.34142002,-0.016138645,-0.5434754,-0.37872088,-0.057961643,852.6007,817.9487,809.0842,835.6777,923.1135,-0.211181640625,-0.00445556640625,0.9932861328125,5.48797607421875,0.381317138671875,1.024322509765625,1,1.0,1.0,1.0,1.0,55.00
2022-11-23 20:14:59.650,0.552096,-0.34351918,0.0047504515,0.73768896,0.20368427,-0.30327848,-0.044054788,0.558564,0.9630277,0.48413053,0.49752665,0.9515917,0.30633816,-0.24407157,0.073818736,0.34142002,-0.016138645,-0.5434754,-0.37872088,-0.057961643,820.3663,818.3516,810.696,811.50183,838.9011,-0.211181640625,-0.00445556640625,0.9932861328125,5.48797607421875,0.381317138671875,1.024322509765625,1,1.0,1.0,1.0,1.0,55.00
2022-11-23 20:14:59.650,0.552096,-0.34351918,0.0047504515,0.73768896,0.20368427,-0.30327848,-0.044054788,0.558564,0.9630277,0.48413053,0.49752665,0.9515917,0.30633816,-0.24407157,0.073818736,0.34142002,-0.016138645,-0.5434754,-0.37872088,-0.057961643,759.92676,818.3516,807.47253,772.4176,577.3993,-0.211181640625,-0.00445556640625,0.9932861328125,5.48797607421875,0.381317138671875,1.024322509765625,1,1.0,1.0,1.0,1.0,55.00
2022-11-23 20:14:59.650,0.552096,-0.34351918,0.0047504515,0.73768896,0.20368427,-0.30327848,-0.044054788,0.558564,0.9630277,0.48413053,0.49752665,0.9515917,0.30633816,-0.24407157,0.073818736,0.34142002,-0.016138645,-0.5434754,-0.37872088,-0.057961643,770.40295,815.9341,803.8461,789.7436,684.17584,-0.211181640625,-0.00445556640625,0.9932861328125,5.48797607421875,0.381317138671875,1.024322509765625,1,1.0,1.0,1.0,1.0,55.00
2022-11-23 20:14:59.650,0.552096,-0.34351918,0.0047504515,0.73768896,0.20368427,-0.30327848,-0.044054788,0.558564,0.9630277,0.48413053,0.49752665,0.9515917,0.30633816,-0.24407157,0.073818736,0.34142002,-0.016138645,-0.5434754,-0.37872088,-0.057961643,818.3516,810.696,801.4286,830.0366,1068.1685,-0.211181640625,-0.00445556640625,0.9932861328125,5.48797607421875,0.381317138671875,1.024322509765625,1,1.0,1.0,1.0,1.0,55.00
2022-11-23 20:14:59.650,0.552096,-0.34351918,0.0047504515,0.73768896,0.20368427,-0.30327848,-0.044054788,0.558564,0.9630277,0.48413053,0.49752665,0.9515917,0.30633816,-0.24407157,0.073818736,0.34142002,-0.016138645,-0.5434754,-0.37872088,-0.057961643,818.7546,810.696,801.02563,807.47253,940.84247,-0.211181640625,-0.00445556640625,0.9932861328125,5.48797607421875,0.381317138671875,1.024322509765625,1,1.0,1.0,1.0,1.0,55.00
2022-11-23 20:14:59.651,0.552096,-0.34351918,0.0047504515,0.73768896,0.20368427,-0.30327848,-0.044054788,0.558564,0.9630277,0.48413053,0.49752665,0.9515917,0.30633816,-0.24407157,0.073818736,0.34142002,-0.016138645,-0.5434754,-0.37872088,-0.057961643,762.74725,809.0842,800.6227,763.1502,642.27106,-0.211181640625,-0.00445556640625,0.9932861328125,5.48797607421875,0.381317138671875,1.024322509765625,1,1.0,1.0,1.0,1.0,55.00
2022-11-23 20:14:59.651,0.552096,-0.34351918,0.0047504515,0.73768896,0.20368427,-0.30327848,-0.044054788,0.558564,0.9630277,0.48413053,0.49752665,0.9515917,0.30633816,-0.24407157,0.073818736,0.34142002,-0.016138645,-0.5434754,-0.37872088,-0.057961643,758.315,807.47253,801.02563,769.59705,629.3773,-0.211181640625,-0.00445556640625,0.9932861328125,5.48797607421875,0.381317138671875,1.024322509765625,1,1.0,1.0,1.0,1.0,55.00
2022-11-23 20:14:59.651,0.552096,-0.34351918,0.0047504515,0.73768896,0.20368427,-0.30327848,-0.044054788,0.558564,0.9630277,0.48413053,0.49752665,0.9515917,0.30633816,-0.24407157,0.073818736,0.34142002,-0.016138645,-0.5434754,-0.37872088,-0.057961643,811.50183,805.4579,798.60803,814.7253,821.5751,-0.211181640625,-0.00445556640625,0.9932861328125,5.48797607421875,0.381317138671875,1.024322509765625,1,1.0,1.0,1.0,1.0,55.00
2022-11-23 20:14:59.651,0.552096,-0.34351918,0.0047504515,0.73768896,0.20368427,-0.30327848,-0.044054788,0.558564,0.9630277,0.48413053,0.49752665,0.9515917,0.30633816,-0.24407157,0.073818736,0.34142002,-0.016138645,-0.5434754,-0.37872088,-0.057961643,819.15753,807.0696,796.99634,818.3516,907.3993,-0.211181640625,-0.00445556640625,0.9932861328125,5.48797607421875,0.381317138671875,1.024322509765625,1,1.0,1.0,1.0,1.0,55.00
2022-11-23 20:14:59.699,0.552096,-0.34351918,0.0047504515,0.73768896,0.20368427,-0.30327848,-0.044054788,0.558564,0.9630277,0.48413053,0.49752665,0.9515917,0.30633816,-0.24407157,0.073818736,0.34142002,-0.016138645,-0.5434754,-0.37872088,-0.057961643,772.01465,806.6667,799.011,773.6264,763.1502,-0.211181640625,-0.00445556640625,0.9932861328125,5.48797607421875,0.381317138671875,1.024322509765625,1,1.0,1.0,1.0,1.0,55.00
2022-11-23 20:14:59.700,0.552096,-0.34351918,0.0047504515,0.73768896,0.20368427,-0.30327848,-0.044054788,0.558564,0.9630277,0.48413053,0.49752665,0.9515917,0.30633816,-0.24407157,0.073818736,0.34142002,-0.016138645,-0.5434754,-0.37872088,-0.057961643,755.09155,805.8608,797.8022,759.12085,621.31866,-0.211181640625,-0.00445556640625,0.9932861328125,5.48797607421875,0.381317138671875,1.024322509765625,1,1.0,1.0,1.0,1.0,55.00
2022-11-23 20:14:59.700,0.552096,-0.34351918,0.0047504515,0.73768896,0.20368427,-0.30327848,-0.044054788,0.558564,0.9630277,0.48413053,0.49752665,0.9515917,0.30633816,-0.24407157,0.073818736,0.34142002,-0.016138645,-0.5434754,-0.37872088,-0.057961643,795.38464,804.65204,797.8022,802.6374,721.6484,-0.211181640625,-0.00445556640625,0.9932861328125,5.48797607421875,0.381317138671875,1.024322509765625,1,1.0,1.0,1.0,1.0,55.00
2022-11-23 20:14:59.700,0.552096,-0.34351918,0.0047504515,0.73768896,0.20368427,-0.30327848,-0.044054788,0.558564,0.9630277,0.48413053,0.49752665,0.9515917,0.30633816,-0.24407157,0.073818736,0.34142002,-0.016138645,-0.5434754,-0.37872088,-0.057961643,829.2308,802.6374,799.81683,832.0513,932.7839,-0.211181640625,-0.00445556640625,0.9932861328125,5.48797607421875,0.381317138671875,1.024322509765625,1,1.0,1.0,1.0,1.0,55.00
2022-11-23 20:14:59.701,0.552096,-0.34351918,0.0047504515,0.73768896,0.20368427,-0.30327848,-0.044054788,0.558564,0.9630277,0.48413053,0.49752665,0.9515917,0.30633816,-0.24407157,0.073818736,0.34142002,-0.016138645,-0.5434754,-0.37872088,-0.057961643,798.60803,804.2491,792.1612,791.3553,857.4359,-0.211181640625,-0.00445556640625,0.9932861328125,5.48797607421875,0.381317138671875,1.024322509765625,1,1.0,1.0,1.0,1.0,55.00
2022-11-23 20:14:59.701,0.56529737,-0.32481137,0.08278162,0.73563397,0.38812578,-0.31448278,0.019479321,0.68571836,1.0425624,0.50508964,0.5008987,0.9990489,0.3128966,-0.23927097,0.068452686,0.3505202,-0.028171787,-0.53448236,-0.38756308,-0.05701396,759.92676,807.0696,791.3553,765.56775,855.82416,-0.211181640625,-0.00445556640625,0.9932861328125,5.48797607421875,0.381317138671875,1.024322509765625,1,1.0,1.0,1.0,1.0,55.00
2022-11-23 20:14:59.702,0.56529737,-0.32481137,0.08278162,0.73563397,0.38812578,-0.31448278,0.019479321,0.68571836,1.0425624,0.50508964,0.5008987,0.9990489,0.3128966,-0.23927097,0.068452686,0.3505202,-0.028171787,-0.53448236,-0.38756308,-0.05701396,778.46155,808.68134,799.41394,792.5641,937.2161,-0.211181640625,-0.00445556640625,0.9932861328125,5.48797607421875,0.381317138671875,1.024322509765625,1,1.0,1.0,1.0,1.0,55.00
2022-11-23 20:14:59.702,0.56529737,-0.32481137,0.08278162,0.73563397,0.38812578,-0.31448278,0.019479321,0.68571836,1.0425624,0.50508964,0.5008987,0.9990489,0.3128966,-0.23927097,0.068452686,0.3505202,-0.028171787,-0.53448236,-0.38756308,-0.05701396,826.4103,810.293,800.2198,817.1429,829.6337,-0.211181640625,-0.00445556640625,0.9932861328125,5.48797607421875,0.381317138671875,1.024322509765625,1,1.0,1.0,1.0,1.0,55.00
2022-11-23 20:14:59.703,0.56529737,-0.32481137,0.08278162,0.73563397,0.38812578,-0.31448278,0.019479321,0.68571836,1.0425624,0.50508964,0.5008987,0.9990489,0.3128966,-0.23927097,0.068452686,0.3505202,-0.028171787,-0.53448236,-0.38756308,-0.05701396,817.9487,807.47253,799.41394,790.54944,781.28204,-0.211181640625,-0.00445556640625,0.9932861328125,5.48797607421875,0.381317138671875,1.024322509765625,1,1.0,1.0,1.0,1.0,55.00
2022-11-23 20:14:59.703,0.56529737,-0.32481137,0.08278162,0.73563397,0.38812578,-0.31448278,0.019479321,0.68571836,1.0425624,0.50508964,0.5008987,0.9990489,0.3128966,-0.23927097,0.068452686,0.3505202,-0.028171787,-0.53448236,-0.38756308,-0.05701396,763.95605,805.4579,799.41394,760.32965,783.2967,-0.211181640625,-0.00445556640625,0.9932861328125,5.48797607421875,0.381317138671875,1.024322509765625,1,1.0,1.0,1.0,1.0,55.00
2022-11-23 20:14:59.703,0.56529737,-0.32481137,0.08278162,0.73563397,0.38812578,-0.31448278,0.019479321,0.68571836,1.0425624,0.50508964,0.5008987,0.9990489,0.3128966,-0.23927097,0.068452686,0.3505202,-0.028171787,-0.53448236,-0.38756308,-0.05701396,774.0293,803.8461,794.9817,775.2381,749.0476,-0.211181640625,-0.00445556640625,0.9932861328125,5.48797607421875,0.381317138671875,1.024322509765625,1,1.0,1.0,1.0,1.0,55.00
2022-11-23 20:14:59.703,0.56529737,-0.32481137,0.08278162,0.73563397,0.38812578,-0.31448278,0.019479321,0.68571836,1.0425624,0.50508964,0.5008987,0.9990489,0.3128966,-0.23927097,0.068452686,0.3505202,-0.028171787,-0.53448236,-0.38756308,-0.05701396,828.4249,798.20514,794.9817,807.47253,794.9817,-0.211181640625,-0.00445556640625,0.9932861328125,5.48797607421875,0.381317138671875,1.024322509765625,1,1.0,1.0,1.0,1.0,55.00
2022-11-23 20:14:59.759,0.56529737,-0.32481137,0.08278162,0.73563397,0.38812578,-0.31448278,0.019479321,0.68571836,1.0425624,0.50508964,0.5008987,0.9990489,0.3128966,-0.23927097,0.068452686,0.3505202,-0.028171787,-0.53448236,-0.38756308,-0.05701396,830.0366,798.60803,797.3993,805.8608,854.61536,-0.20465087890625,0.0081787109375,1.011962890625,5.226287841796875,1.173858642578125,1.263580322265625,1,1.0,1.0,1.0,1.0,55.00
2022-11-23 20:14:59.759,0.56529737,-0.32481137,0.08278162,0.73563397,0.38812578,-0.31448278,0.019479321,0.68571836,1.0425624,0.50508964,0.5008987,0.9990489,0.3128966,-0.23927097,0.068452686,0.3505202,-0.028171787,-0.53448236,-0.38756308,-0.05701396,781.685,802.23444,803.0403,777.6557,775.64105,-0.20465087890625,0.0081787109375,1.011962890625,5.226287841796875,1.173858642578125,1.263580322265625,1,1.0,1.0,1.0,1.0,55.00
2022-11-23 20:14:59.760,0.56529737,-0.32481137,0.08278162,0.73563397,0.38812578,-0.31448278,0.019479321,0.68571836,1.0425624,0.50508964,0.5008987,0.9990489,0.3128966,-0.23927097,0.068452686,0.3505202,-0.028171787,-0.53448236,-0.38756308,-0.05701396,769.59705,802.6374,803.44324,781.28204,689.41394,-0.20465087890625,0.0081787109375,1.011962890625,5.226287841796875,1.173858642578125,1.263580322265625,1,1.0,1.0,1.0,1.0,55.00
2022-11-23 20:14:59.760,0.56529737,-0.32481137,0.08278162,0.73563397,0.38812578,-0.31448278,0.019479321,0.68571836,1.0425624,0.50508964,0.5008987,0.9990489,0.3128966,-0.23927097,0.068452686,0.3505202,-0.028171787,-0.53448236,-0.38756308,-0.05701396,817.9487,802.23444,804.2491,819.9634,770.80585,-0.20465087890625,0.0081787109375,1.011962890625,5.226287841796875,1.173858642578125,1.263580322265625,1,1.0,1.0,1.0,1.0,55.00
2022-11-23 20:14:59.760,0.56529737,-0.32481137,0.08278162,0.73563397,0.38812578,-0.31448278,0.019479321,0.68571836,1.0425624,0.50508964,0.5008987,0.9990489,0.3128966,-0.23927097,0.068452686,0.3505202,-0.028171787,-0.53448236,-0.38756308,-0.05701396,842.1245,798.20514,803.8461,830.0366,919.0842,-0.20465087890625,0.0081787109375,1.011962890625,5.226287841796875,1.173858642578125,1.263580322265625,1,1.0,1.0,1.0,1.0,55.00
2022-11-23 20:14:59.761,0.56529737,-0.32481137,0.08278162,0.73563397,0.38812578,-0.31448278,0.019479321,0.68571836,1.0425624,0.50508964,0.5008987,0.9990489,0.3128966,-0.23927097,0.068452686,0.3505202,-0.028171787,-0.53448236,-0.38756308,-0.05701396,798.20514,797.3993,804.65204,799.41394,867.50916,-0.20465087890625,0.0081787109375,1.011962890625,5.226287841796875,1.173858642578125,1.263580322265625,1,1.0,1.0,1.0,1.0,55.00
2022-11-23 20:14:59.761,0.56529737,-0.32481137,0.08278162,0.73563397,0.38812578,-0.31448278,0.019479321,0.68571836,1.0425624,0.50508964,0.5008987,0.9990489,0.3128966,-0.23927097,0.068452686,0.3505202,-0.028171787,-0.53448236,-0.38756308,-0.05701396,764.7619,799.81683,807.0696,786.1172,768.7912,-0.20465087890625,0.0081787109375,1.011962890625,5.226287841796875,1.173858642578125,1.263580322265625,1,1.0,1.0,1.0,1.0,55.00
2022-11-23 20:14:59.761,0.56529737,-0.32481137,0.08278162,0.73563397,0.38812578,-0.31448278,0.019479321,0.68571836,1.0425624,0.50508964,0.5008987,0.9990489,0.3128966,-0.23927097,0.068452686,0.3505202,-0.028171787,-0.53448236,-0.38756308,-0.05701396,814.3223,798.20514,805.05493,815.12823,821.1722,-0.20465087890625,0.0081787109375,1.011962890625,5.226287841796875,1.173858642578125,1.263580322265625,1,1.0,1.0,1.0,1.0,55.00
2022-11-23 20:14:59.762,0.56529737,-0.32481137,0.08278162,0.73563397,0.38812578,-0.31448278,0.019479321,0.68571836,1.0425624,0.50508964,0.5008987,0.9990489,0.3128966,-0.23927097,0.068452686,0.3505202,-0.028171787,-0.53448236,-0.38756308,-0.05701396,856.2271,796.99634,801.02563,839.304,892.0879,-0.20465087890625,0.0081787109375,1.011962890625,5.226287841796875,1.173858642578125,1.263580322265625,1,1.0,1.0,1.0,1.0,55.00
2022-11-23 20:14:59.762,0.56529737,-0.32481137,0.08278162,0.73563397,0.38812578,-0.31448278,0.019479321,0.68571836,1.0425624,0.50508964,0.5008987,0.9990489,0.3128966,-0.23927097,0.068452686,0.3505202,-0.028171787,-0.53448236,-0.38756308,-0.05701396,816.337,796.5934,799.81683,815.9341,1079.0476,-0.20465087890625,0.0081787109375,1.011962890625,5.226287841796875,1.173858642578125,1.263580322265625,1,1.0,1.0,1.0,1.0,55.00
2022-11-23 20:14:59.762,0.56529737,-0.32481137,0.08278162,0.73563397,0.38812578,-0.31448278,0.019479321,0.68571836,1.0425624,0.50508964,0.5008987,0.9990489,0.3128966,-0.23927097,0.068452686,0.3505202,-0.028171787,-0.53448236,-0.38756308,-0.05701396,772.8205,804.65204,805.4579,793.36993,846.1539,-0.20465087890625,0.0081787109375,1.011962890625,5.226287841796875,1.173858642578125,1.263580322265625,1,1.0,1.0,1.0,1.0,55.00
2022-11-23 20:14:59.763,0.56529737,-0.32481137,0.08278162,0.73563397,0.38812578,-0.31448278,0.019479321,0.68571836,1.0425624,0.50508964,0.5008987,0.9990489,0.3128966,-0.23927097,0.068452686,0.3505202,-0.028171787,-0.53448236,-0.38756308,-0.05701396,794.57874,809.4872,805.4579,809.4872,664.83514,-0.20465087890625,0.0081787109375,1.011962890625,5.226287841796875,1.173858642578125,1.263580322265625,1,1.0,1.0,1.0,1.0,55.00
2022-11-23 20:14:59.784,0.56529737,-0.32481137,0.08278162,0.73563397,0.38812578,-0.31448278,0.019479321,0.68571836,1.0425624,0.50508964,0.5008987,0.9990489,0.3128966,-0.23927097,0.068452686,0.3505202,-0.028171787,-0.53448236,-0.38756308,-0.05701396,846.55676,807.47253,809.4872,837.6923,846.55676,-0.22674560546875,0.00311279296875,0.98443603515625,4.015045166015625,0.829925537109375,2.332763671875,1,1.0,1.0,1.0,1.0,55.00
2022-11-23 20:14:59.784,0.56529737,-0.32481137,0.08278162,0.73563397,0.38812578,-0.31448278,0.019479321,0.68571836,1.0425624,0.50508964,0.5008987,0.9990489,0.3128966,-0.23927097,0.068452686,0.3505202,-0.028171787,-0.53448236,-0.38756308,-0.05701396,843.73627,815.5311,811.0989,823.5897,814.7253,-0.22674560546875,0.00311279296875,0.98443603515625,4.015045166015625,0.829925537109375,2.332763671875,1,1.0,1.0,1.0,1.0,55.00
2022-11-23 20:14:59.785,0.56529737,-0.32481137,0.08278162,0.73563397,0.38812578,-0.31448278,0.019479321,0.68571836,1.0425624,0.50508964,0.5008987,0.9990489,0.3128966,-0.23927097,0.068452686,0.3505202,-0.028171787,-0.53448236,-0.38756308,-0.05701396,792.5641,817.5458,809.89014,786.9231,677.326,-0.22674560546875,0.00311279296875,0.98443603515625,4.015045166015625,0.829925537109375,2.332763671875,1,1.0,1.0,1.0,1.0,55.00
2022-11-23 20:14:59.785,0.56529737,-0.32481137,0.08278162,0.73563397,0.38812578,-0.31448278,0.019479321,0.68571836,1.0425624,0.50508964,0.5008987,0.9990489,0.3128966,-0.23927097,0.068452686,0.3505202,-0.028171787,-0.53448236,-0.38756308,-0.05701396,792.1612,813.91943,812.71063,796.1905,629.3773,-0.22674560546875,0.00311279296875,0.98443603515625,4.015045166015625,0.829925537109375,2.332763671875,1,1.0,1.0,1.0,1.0,55.00
2022-11-23 20:14:59.785,0.56529737,-0.32481137,0.08278162,0.73563397,0.38812578,-0.31448278,0.019479321,0.68571836,1.0425624,0.50508964,0.5008987,0.9990489,0.3128966,-0.23927097,0.068452686,0.3505202,-0.028171787,-0.53448236,-0.38756308,-0.05701396,841.31866,811.50183,809.89014,834.4689,792.96704,-0.22674560546875,0.00311279296875,0.98443603515625,4.015045166015625,0.829925537109375,2.332763671875,1,1.0,1.0,1.0,1.0,55.00
2022-11-23 20:14:59.786,0.56529737,-0.32481137,0.08278162,0.73563397,0.38812578,-0.31448278,0.019479321,0.68571836,1.0425624,0.50508964,0.5008987,0.9990489,0.3128966,-0.23927097,0.068452686,0.3505202,-0.028171787,-0.53448236,-0.38756308,-0.05701396,846.55676,810.696,809.4872,838.9011,963.4066,-0.22674560546875,0.00311279296875,0.98443603515625,4.015045166015625,0.829925537109375,2.332763671875,1,1.0,1.0,1.0,1.0,55.00
2022-11-23 20:14:59.786,0.56529737,-0.32481137,0.08278162,0.73563397,0.38812578,-0.31448278,0.019479321,0.68571836,1.0425624,0.50508964,0.5008987,0.9990489,0.3128966,-0.23927097,0.068452686,0.3505202,-0.028171787,-0.53448236,-0.38756308,-0.05701396,798.60803,813.5165,808.68134,796.1905,859.85345,-0.22674560546875,0.00311279296875,0.98443603515625,4.015045166015625,0.829925537109375,2.332763671875,1,1.0,1.0,1.0,1.0,55.00
2022-11-23 20:14:59.787,0.57139814,-0.2634059,0.13830438,0.7229359,0.5524577,-0.2863357,0.09363595,0.8043699,1.0880696,0.5056367,0.488927,1.008852,0.3237947,-0.23320583,0.06347565,0.36333522,-0.035722993,-0.52980477,-0.40689737,-0.05591736,785.31134,816.7399,812.3077,779.67035,667.6557,-0.22674560546875,0.00311279296875,0.98443603515625,4.015045166015625,0.829925537109375,2.332763671875,1,1.0,1.0,1.0,1.0,55.00
2022-11-23 20:14:59.788,0.57139814,-0.2634059,0.13830438,0.7229359,0.5524577,-0.2863357,0.09363595,0.8043699,1.0880696,0.5056367,0.488927,1.008852,0.3237947,-0.23320583,0.06347565,0.36333522,-0.035722993,-0.52980477,-0.40689737,-0.05591736,839.707,820.3663,812.3077,819.5604,904.17584,-0.22674560546875,0.00311279296875,0.98443603515625,4.015045166015625,0.829925537109375,2.332763671875,1,1.0,1.0,1.0,1.0,55.00
2022-11-23 20:14:59.788,0.57139814,-0.2634059,0.13830438,0.7229359,0.5524577,-0.2863357,0.09363595,0.8043699,1.0880696,0.5056367,0.488927,1.008852,0.3237947,-0.23320583,0.06347565,0.36333522,-0.035722993,-0.52980477,-0.40689737,-0.05591736,856.63007,816.337,810.293,838.49817,1110.0732,-0.22674560546875,0.00311279296875,0.98443603515625,4.015045166015625,0.829925537109375,2.332763671875,1,1.0,1.0,1.0,1.0,55.00
2022-11-23 20:14:59.789,0.57139814,-0.2634059,0.13830438,0.7229359,0.5524577,-0.2863357,0.09363595,0.8043699,1.0880696,0.5056367,0.488927,1.008852,0.3237947,-0.23320583,0.06347565,0.36333522,-0.035722993,-0.52980477,-0.40689737,-0.05591736,816.7399,813.91943,805.8608,807.8755,767.5824,-0.22674560546875,0.00311279296875,0.98443603515625,4.015045166015625,0.829925537109375,2.332763671875,1,1.0,1.0,1.0,1.0,55.00
2022-11-23 20:14:59.789,0.57139814,-0.2634059,0.13830438,0.7229359,0.5524577,-0.2863357,0.09363595,0.8043699,1.0880696,0.5056367,0.488927,1.008852,0.3237947,-0.23320583,0.06347565,0.36333522,-0.035722993,-0.52980477,-0.40689737,-0.05591736,790.54944,812.71063,801.4286,778.0586,609.6337,-0.22674560546875,0.00311279296875,0.98443603515625,4.015045166015625,0.829925537109375,2.332763671875,1,1.0,1.0,1.0,1.0,55.00
2022-11-23 20:14:59.832,0.57139814,-0.2634059,0.13830438,0.7229359,0.5524577,-0.2863357,0.09363595,0.8043699,1.0880696,0.5056367,0.488927,1.008852,0.3237947,-0.23320583,0.06347565,0.36333522,-0.035722993,-0.52980477,-0.40689737,-0.05591736,816.337,810.293,803.44324,800.6227,920.293,-0.22271728515625,-0.00811767578125,0.99188232421875,3.237457275390625,-2.31781005859375,0.874786376953125,1,1.0,1.0,1.0,1.0,55.00
2022-11-23 20:14:59.832,0.57139814,-0.2634059,0.13830438,0.7229359,0.5524577,-0.2863357,0.09363595,0.8043699,1.0880696,0.5056367,0.488927,1.008852,0.3237947,-0.23320583,0.06347565,0.36333522,-0.035722993,-0.52980477,-0.40689737,-0.05591736,853.8095,810.293,805.05493,829.2308,1018.20514,-0.22271728515625,-0.00811767578125,0.99188232421875,3.237457275390625,-2.31781005859375,0.874786376953125,1,1.0,1.0,1.0,1.0,55.00
2022-11-23 20:14:59.833,0.57139814,-0.2634059,0.13830438,0.7229359,0.5524577,-0.2863357,0.09363595,0.8043699,1.0880696,0.5056367,0.488927,1.008852,0.3237947,-0.23320583,0.06347565,0.36333522,-0.035722993,-0.52980477,-0.40689737,-0.05591736,820.7692,807.47253,804.2491,795.78754,829.2308,-0.22271728515625,-0.00811767578125,0.99188232421875,3.237457275390625,-2.31781005859375,0.874786376953125,1,1.0,1.0,1.0,1.0,55.00
2022-11-23 20:14:59.833,0.57139814,-0.2634059,0.13830438,0.7229359,0.5524577,-0.2863357,0.09363595,0.8043699,1.0880696,0.5056367,0.488927,1.008852,0.3237947,-0.23320583,0.06347565,0.36333522,-0.035722993,-0.52980477,-0.40689737,-0.05591736,773.6264,806.6667,799.81683,755.4945,652.74725,-0.22271728515625,-0.00811767578125,0.99188232421875,3.237457275390625,-2.31781005859375,0.874786376953125,1,1.0,1.0,1.0,1.0,55.00
2022-11-23 20:14:59.833,0.57139814,-0.2634059,0.13830438,0.7229359,0.5524577,-0.2863357,0.09363595,0.8043699,1.0880696,0.5056367,0.488927,1.008852,0.3237947,-0.23320583,0.06347565,0.36333522,-0.035722993,-0.52980477,-0.40689737,-0.05591736,792.5641,808.68134,797.8022,774.43225,695.4579,-0.22271728515625,-0.00811767578125,0.99188232421875,3.237457275390625,-2.31781005859375,0.874786376953125,1,1.0,1.0,1.0,1.0,55.00
2022-11-23 20:14:59.833,0.57139814,-0.2634059,0.13830438,0.7229359,0.5524577,-0.2863357,0.09363595,0.8043699,1.0880696,0.5056367,0.488927,1.008852,0.3237947,-0.23320583,0.06347565,0.36333522,-0.035722993,-0.52980477,-0.40689737,-0.05591736,838.9011,811.50183,802.23444,809.4872,917.47253,-0.22271728515625,-0.00811767578125,0.99188232421875,3.237457275390625,-2.31781005859375,0.874786376953125,1,1.0,1.0,1.0,1.0,55.00
2022-11-23 20:14:59.833,0.57139814,-0.2634059,0.13830438,0.7229359,0.5524577,-0.2863357,0.09363595,0.8043699,1.0880696,0.5056367,0.488927,1.008852,0.3237947,-0.23320583,0.06347565,0.36333522,-0.035722993,-0.52980477,-0.40689737,-0.05591736,823.9927,809.4872,801.4286,800.2198,923.91943,-0.22271728515625,-0.00811767578125,0.99188232421875,3.237457275390625,-2.31781005859375,0.874786376953125,1,1.0,1.0,1.0,1.0,55.00
2022-11-23 20:14:59.834,0.57139814,-0.2634059,0.13830438,0.7229359,0.5524577,-0.2863357,0.09363595,0.8043699,1.0880696,0.5056367,0.488927,1.008852,0.3237947,-0.23320583,0.06347565,0.36333522,-0.035722993,-0.52980477,-0.40689737,-0.05591736,768.7912,803.8461,796.99634,756.30035,760.7326,-0.22271728515625,-0.00811767578125,0.99188232421875,3.237457275390625,-2.31781005859375,0.874786376953125,1,1.0,1.0,1.0,1.0,55.00
2022-11-23 20:14:59.834,0.57139814,-0.2634059,0.13830438,0.7229359,0.5524577,-0.2863357,0.09363595,0.8043699,1.0880696,0.5056367,0.488927,1.008852,0.3237947,-0.23320583,0.06347565,0.36333522,-0.035722993,-0.52980477,-0.40689737,-0.05591736,767.5824,802.6374,797.8022,769.19415,845.34796,-0.22271728515625,-0.00811767578125,0.99188232421875,3.237457275390625,-2.31781005859375,0.874786376953125,1,1.0,1.0,1.0,1.0,55.00
2022-11-23 20:14:59.834,0.57139814,-0.2634059,0.13830438,0.7229359,0.5524577,-0.2863357,0.09363595,0.8043699,1.0880696,0.5056367,0.488927,1.008852,0.3237947,-0.23320583,0.06347565,0.36333522,-0.035722993,-0.52980477,-0.40689737,-0.05591736,811.50183,800.6227,803.0403,815.12823,887.25275,-0.22271728515625,-0.00811767578125,0.99188232421875,3.237457275390625,-2.31781005859375,0.874786376953125,1,1.0,1.0,1.0,1.0,55.00
2022-11-23 20:14:59.834,0.57139814,-0.2634059,0.13830438,0.7229359,0.5524577,-0.2863357,0.09363595,0.8043699,1.0880696,0.5056367,0.488927,1.008852,0.3237947,-0.23320583,0.06347565,0.36333522,-0.035722993,-0.52980477,-0.40689737,-0.05591736,809.0842,799.011,799.81683,805.4579,828.4249,-0.22271728515625,-0.00811767578125,0.99188232421875,3.237457275390625,-2.31781005859375,0.874786376953125,1,1.0,1.0,1.0,1.0,55.00
2022-11-23 20:14:59.834,0.57139814,-0.2634059,0.13830438,0.7229359,0.5524577,-0.2863357,0.09363595,0.8043699,1.0880696,0.5056367,0.488927,1.008852,0.3237947,-0.23320583,0.06347565,0.36333522,-0.035722993,-0.52980477,-0.40689737,-0.05591736,777.6557,805.05493,803.0403,770.80585,753.8828,-0.22271728515625,-0.00811767578125,0.99188232421875,3.237457275390625,-2.31781005859375,0.874786376953125,1,1.0,1.0,1.0,1.0,55.00
2022-11-23 20:14:59.882,0.57139814,-0.2634059,0.13830438,0.7229359,0.5524577,-0.2863357,0.09363595,0.8043699,1.0880696,0.5056367,0.488927,1.008852,0.3237947,-0.23320583,0.06347565,0.36333522,-0.035722993,-0.52980477,-0.40689737,-0.05591736,770.0,805.4579,810.293,778.46155,725.2747,-0.183349609375,4.8828125E-4,1.00457763671875,3.611297607421875,-4.83001708984375,1.45050048828125,1,1.0,1.0,1.0,1.0,55.00
2022-11-23 20:14:59.882,0.57139814,-0.2634059,0.13830438,0.7229359,0.5524577,-0.2863357,0.09363595,0.8043699,1.0880696,0.5056367,0.488927,1.008852,0.3237947,-0.23320583,0.06347565,0.36333522,-0.035722993,-0.52980477,-0.40689737,-0.05591736,802.23444,803.8461,803.0403,807.47253,774.0293,-0.183349609375,4.8828125E-4,1.00457763671875,3.611297607421875,-4.83001708984375,1.45050048828125,1,1.0,1.0,1.0,1.0,55.00
2022-11-23 20:14:59.882,0.57139814,-0.2634059,0.13830438,0.7229359,0.5524577,-0.2863357,0.09363595,0.8043699,1.0880696,0.5056367,0.488927,1.008852,0.3237947,-0.23320583,0.06347565,0.36333522,-0.035722993,-0.52980477,-0.40689737,-0.05591736,822.7839,799.81683,798.60803,814.3223,849.3773,-0.183349609375,4.8828125E-4,1.00457763671875,3.611297607421875,-4.83001708984375,1.45050048828125,1,1.0,1.0,1.0,1.0,55.00
2022-11-23 20:14:59.883,0.57139814,-0.2634059,0.13830438,0.7229359,0.5524577,-0.2863357,0.09363595,0.8043699,1.0880696,0.5056367,0.488927,1.008852,0.3237947,-0.23320583,0.06347565,0.36333522,-0.035722993,-0.52980477,-0.40689737,-0.05591736,796.1905,798.60803,800.6227,801.8315,844.1392,-0.183349609375,4.8828125E-4,1.00457763671875,3.611297607421875,-4.83001708984375,1.45050048828125,1,1.0,1.0,1.0,1.0,55.00
2022-11-23 20:14:59.883,0.57139814,-0.2634059,0.13830438,0.7229359,0.5524577,-0.2863357,0.09363595,0.8043699,1.0880696,0.5056367,0.488927,1.008852,0.3237947,-0.23320583,0.06347565,0.36333522,-0.035722993,-0.52980477,-0.40689737,-0.05591736,761.53845,800.6227,803.8461,780.07324,710.7692,-0.183349609375,4.8828125E-4,1.00457763671875,3.611297607421875,-4.83001708984375,1.45050048828125,1,1.0,1.0,1.0,1.0,55.00
2022-11-23 20:14:59.883,0.57139814,-0.2634059,0.13830438,0.7229359,0.5524577,-0.2863357,0.09363595,0.8043699,1.0880696,0.5056367,0.488927,1.008852,0.3237947,-0.23320583,0.06347565,0.36333522,-0.035722993,-0.52980477,-0.40689737,-0.05591736,773.6264,795.78754,801.8315,787.72894,757.9121,-0.183349609375,4.8828125E-4,1.00457763671875,3.611297607421875,-4.83001708984375,1.45050048828125,1,1.0,1.0,1.0,1.0,55.00
2022-11-23 20:14:59.883,0.57139814,-0.2634059,0.13830438,0.7229359,0.5524577,-0.2863357,0.09363595,0.8043699,1.0880696,0.5056367,0.488927,1.008852,0.3237947,-0.23320583,0.06347565,0.36333522,-0.035722993,-0.52980477,-0.40689737,-0.05591736,826.4103,801.8315,799.41394,828.4249,893.2967,-0.183349609375,4.8828125E-4,1.00457763671875,3.611297607421875,-4.83001708984375,1.45050048828125,1,1.0,1.0,1.0,1.0,55.00
2022-11-23 20:14:59.884,0.57139814,-0.2634059,0.13830438,0.7229359,0.5524577,-0.2863357,0.09363595,0.8043699,1.0880696,0.5056367,0.488927,1.008852,0.3237947,-0.23320583,0.06347565,0.36333522,-0.035722993,-0.52980477,-0.40689737,-0.05591736,825.6044,808.68134,799.41394,829.2308,958.1685,-0.183349609375,4.8828125E-4,1.00457763671875,3.611297607421875,-4.83001708984375,1.45050048828125,1,1.0,1.0,1.0,1.0,55.00
2022-11-23 20:14:59.884,0.57139814,-0.2634059,0.13830438,0.7229359,0.5524577,-0.2863357,0.09363595,0.8043699,1.0880696,0.5056367,0.488927,1.008852,0.3237947,-0.23320583,0.06347565,0.36333522,-0.035722993,-0.52980477,-0.40689737,-0.05591736,792.96704,807.47253,803.8461,815.12823,842.52747,-0.183349609375,4.8828125E-4,1.00457763671875,3.611297607421875,-4.83001708984375,1.45050048828125,1,1.0,1.0,1.0,1.0,55.00
2022-11-23 20:14:59.884,0.5710554,-0.14861315,0.18270172,0.68829244,0.68860775,-0.19858468,0.16869096,0.89627403,1.1246411,0.48867476,0.4761953,1.0063605,0.33576828,-0.22963795,0.059579033,0.37805176,-0.03370356,-0.52574235,-0.42834198,-0.054654405,793.7729,801.02563,819.9634,832.4542,645.89746,-0.183349609375,4.8828125E-4,1.00457763671875,3.611297607421875,-4.83001708984375,1.45050048828125,1,1.0,1.0,1.0,1.0,55.00
2022-11-23 20:14:59.885,0.5710554,-0.14861315,0.18270172,0.68829244,0.68860775,-0.19858468,0.16869096,0.89627403,1.1246411,0.48867476,0.4761953,1.0063605,0.33576828,-0.22963795,0.059579033,0.37805176,-0.03370356,-0.52574235,-0.42834198,-0.054654405,819.15753,799.011,821.5751,840.9158,822.7839,-0.183349609375,4.8828125E-4,1.00457763671875,3.611297607421875,-4.83001708984375,1.45050048828125,1,1.0,1.0,1.0,1.0,55.00
2022-11-23 20:14:59.885,0.5710554,-0.14861315,0.18270172,0.68829244,0.68860775,-0.19858468,0.16869096,0.89627403,1.1246411,0.48867476,0.4761953,1.0063605,0.33576828,-0.22963795,0.059579033,0.37805176,-0.03370356,-0.52574235,-0.42834198,-0.054654405,814.3223,801.4286,818.3516,822.381,932.381,-0.183349609375,4.8828125E-4,1.00457763671875,3.611297607421875,-4.83001708984375,1.45050048828125,1,1.0,1.0,1.0,1.0,55.00
2022-11-23 20:14:59.933,0.5710554,-0.14861315,0.18270172,0.68829244,0.68860775,-0.19858468,0.16869096,0.89627403,1.1246411,0.48867476,0.4761953,1.0063605,0.33576828,-0.22963795,0.059579033,0.37805176,-0.03370356,-0.52574235,-0.42834198,-0.054654405,762.74725,799.011,821.5751,782.49084,756.30035,-0.183349609375,4.8828125E-4,1.00457763671875,3.611297607421875,-4.83001708984375,1.45050048828125,1,1.0,1.0,1.0,1.0,55.00
2022-11-23 20:14:59.933,0.5710554,-0.14861315,0.18270172,0.68829244,0.68860775,-0.19858468,0.16869096,0.89627403,1.1246411,0.48867476,0.4761953,1.0063605,0.33576828,-0.22963795,0.059579033,0.37805176,-0.03370356,-0.52574235,-0.42834198,-0.054654405,750.2564,801.02563,814.3223,772.4176,645.4945,-0.183349609375,4.8828125E-4,1.00457763671875,3.611297607421875,-4.83001708984375,1.45050048828125,1,1.0,1.0,1.0,1.0,55.00
2022-11-23 20:14:59.934,0.5710554,-0.14861315,0.18270172,0.68829244,0.68860775,-0.19858468,0.16869096,0.89627403,1.1246411,0.48867476,0.4761953,1.0063605,0.33576828,-0.22963795,0.059579033,0.37805176,-0.03370356,-0.52574235,-0.42834198,-0.054654405,810.293,805.05493,815.12823,811.0989,772.8205,-0.183349609375,4.8828125E-4,1.00457763671875,3.611297607421875,-4.83001708984375,1.45050048828125,1,1.0,1.0,1.0,1.0,55.00
2022-11-23 20:14:59.934,0.5710554,-0.14861315,0.18270172,0.68829244,0.68860775,-0.19858468,0.16869096,0.89627403,1.1246411,0.48867476,0.4761953,1.0063605,0.33576828,-0.22963795,0.059579033,0.37805176,-0.03370356,-0.52574235,-0.42834198,-0.054654405,811.0989,804.65204,825.2015,813.91943,940.84247,-0.183349609375,4.8828125E-4,1.00457763671875,3.611297607421875,-4.83001708984375,1.45050048828125,1,1.0,1.0,1.0,1.0,55.00
2022-11-23 20:14:59.934,0.5710554,-0.14861315,0.18270172,0.68829244,0.68860775,-0.19858468,0.16869096,0.89627403,1.1246411,0.48867476,0.4761953,1.0063605,0.33576828,-0.22963795,0.059579033,0.37805176,-0.03370356,-0.52574235,-0.42834198,-0.054654405,752.27106,798.60803,821.1722,769.59705,782.8938,-0.183349609375,4.8828125E-4,1.00457763671875,3.611297607421875,-4.83001708984375,1.45050048828125,1,1.0,1.0,1.0,1.0,55.00
2022-11-23 20:14:59.935,0.5710554,-0.14861315,0.18270172,0.68829244,0.68860775,-0.19858468,0.16869096,0.89627403,1.1246411,0.48867476,0.4761953,1.0063605,0.33576828,-0.22963795,0.059579033,0.37805176,-0.03370356,-0.52574235,-0.42834198,-0.054654405,726.8865,796.99634,815.12823,755.89746,695.8608,-0.183349609375,4.8828125E-4,1.00457763671875,3.611297607421875,-4.83001708984375,1.45050048828125,1,1.0,1.0,1.0,1.0,55.00
2022-11-23 20:14:59.935,0.5710554,-0.14861315,0.18270172,0.68829244,0.68860775,-0.19858468,0.16869096,0.89627403,1.1246411,0.48867476,0.4761953,1.0063605,0.33576828,-0.22963795,0.059579033,0.37805176,-0.03370356,-0.52574235,-0.42834198,-0.054654405,745.82416,798.60803,821.978,773.6264,875.9707,-0.183349609375,4.8828125E-4,1.00457763671875,3.611297607421875,-4.83001708984375,1.45050048828125,1,1.0,1.0,1.0,1.0,55.00
2022-11-23 20:14:59.935,0.5710554,-0.14861315,0.18270172,0.68829244,0.68860775,-0.19858468,0.16869096,0.89627403,1.1246411,0.48867476,0.4761953,1.0063605,0.33576828,-0.22963795,0.059579033,0.37805176,-0.03370356,-0.52574235,-0.42834198,-0.054654405,771.2088,790.54944,821.978,786.52014,1139.8901,-0.183349609375,4.8828125E-4,1.00457763671875,3.611297607421875,-4.83001708984375,1.45050048828125,1,1.0,1.0,1.0,1.0,55.00
2022-11-23 20:14:59.935,0.5710554,-0.14861315,0.18270172,0.68829244,0.68860775,-0.19858468,0.16869096,0.89627403,1.1246411,0.48867476,0.4761953,1.0063605,0.33576828,-0.22963795,0.059579033,0.37805176,-0.03370356,-0.52574235,-0.42834198,-0.054654405,738.97437,788.1319,824.7985,762.3443,903.36993,-0.183349609375,4.8828125E-4,1.00457763671875,3.611297607421875,-4.83001708984375,1.45050048828125,1,1.0,1.0,1.0,1.0,55.00
2022-11-23 20:14:59.936,0.5710554,-0.14861315,0.18270172,0.68829244,0.68860775,-0.19858468,0.16869096,0.89627403,1.1246411,0.48867476,0.4761953,1.0063605,0.33576828,-0.22963795,0.059579033,0.37805176,-0.03370356,-0.52574235,-0.42834198,-0.054654405,686.5934,787.72894,830.4396,724.4689,597.9487,-0.183349609375,4.8828125E-4,1.00457763671875,3.611297607421875,-4.83001708984375,1.45050048828125,1,1.0,1.0,1.0,1.0,55.00
2022-11-23 20:14:59.936,0.5710554,-0.14861315,0.18270172,0.68829244,0.68860775,-0.19858468,0.16869096,0.89627403,1.1246411,0.48867476,0.4761953,1.0063605,0.33576828,-0.22963795,0.059579033,0.37805176,-0.03370356,-0.52574235,-0.42834198,-0.054654405,702.71063,782.49084,826.0073,742.6007,709.5604,-0.183349609375,4.8828125E-4,1.00457763671875,3.611297607421875,-4.83001708984375,1.45050048828125,1,1.0,1.0,1.0,1.0,55.00
2022-11-23 20:14:59.936,0.5710554,-0.14861315,0.18270172,0.68829244,0.68860775,-0.19858468,0.16869096,0.89627403,1.1246411,0.48867476,0.4761953,1.0063605,0.33576828,-0.22963795,0.059579033,0.37805176,-0.03370356,-0.52574235,-0.42834198,-0.054654405,751.8681,783.69965,832.4542,772.01465,869.12085,-0.183349609375,4.8828125E-4,1.00457763671875,3.611297607421875,-4.83001708984375,1.45050048828125,1,1.0,1.0,1.0,1.0,55.00
2022-11-23 20:14:59.983,0.5710554,-0.14861315,0.18270172,0.68829244,0.68860775,-0.19858468,0.16869096,0.89627403,1.1246411,0.48867476,0.4761953,1.0063605,0.33576828,-0.22963795,0.059579033,0.37805176,-0.03370356,-0.52574235,-0.42834198,-0.054654405,732.9304,778.0586,837.6923,746.63007,807.0696,-0.1834716796875,0.00408935546875,1.01104736328125,1.368255615234375,-1.592559814453125,6.69921875,1,1.0,1.0,1.0,1.0,55.00
2022-11-23 20:14:59.983,0.5710554,-0.14861315,0.18270172,0.68829244,0.68860775,-0.19858468,0.16869096,0.89627403,1.1246411,0.48867476,0.4761953,1.0063605,0.33576828,-0.22963795,0.059579033,0.37805176,-0.03370356,-0.52574235,-0.42834198,-0.054654405,675.7143,774.83514,837.28937,702.71063,635.82416,-0.1834716796875,0.00408935546875,1.01104736328125,1.368255615234375,-1.592559814453125,6.69921875,1,1.0,1.0,1.0,1.0,55.00
2022-11-23 20:14:59.983,0.5710554,-0.14861315,0.18270172,0.68829244,0.68860775,-0.19858468,0.16869096,0.89627403,1.1246411,0.48867476,0.4761953,1.0063605,0.33576828,-0.22963795,0.059579033,0.37805176,-0.03370356,-0.52574235,-0.42834198,-0.054654405,670.87915,776.04395,846.1539,709.5604,676.1172,-0.1834716796875,0.00408935546875,1.01104736328125,1.368255615234375,-1.592559814453125,6.69921875,1,1.0,1.0,1.0,1.0,55.00
2022-11-23 20:14:59.984,0.5710554,-0.14861315,0.18270172,0.68829244,0.68860775,-0.19858468,0.16869096,0.89627403,1.1246411,0.48867476,0.4761953,1.0063605,0.33576828,-0.22963795,0.059579033,0.37805176,-0.03370356,-0.52574235,-0.42834198,-0.054654405,724.0659,770.40295,852.6007,757.50916,854.21246,-0.1834716796875,0.00408935546875,1.01104736328125,1.368255615234375,-1.592559814453125,6.69921875,1,1.0,1.0,1.0,1.0,55.00
2022-11-23 20:14:59.984,0.5710554,-0.14861315,0.18270172,0.68829244,0.68860775,-0.19858468,0.16869096,0.89627403,1.1246411,0.48867476,0.4761953,1.0063605,0.33576828,-0.22963795,0.059579033,0.37805176,-0.03370356,-0.52574235,-0.42834198,-0.054654405,724.0659,763.5531,850.18317,748.6447,873.95605,-0.1834716796875,0.00408935546875,1.01104736328125,1.368255615234375,-1.592559814453125,6.69921875,1,1.0,1.0,1.0,1.0,55.00
2022-11-23 20:14:59.984,0.5710554,-0.14861315,0.18270172,0.68829244,0.68860775,-0.19858468,0.16869096,0.89627403,1.1246411,0.48867476,0.4761953,1.0063605,0.33576828,-0.22963795,0.059579033,0.37805176,-0.03370356,-0.52574235,-0.42834198,-0.054654405,674.5055,759.92676,855.42126,704.7253,813.1135,-0.1834716796875,0.00408935546875,1.01104736328125,1.368255615234375,-1.592559814453125,6.69921875,1,1.0,1.0,1.0,1.0,55.00
2022-11-23 20:14:59.984,0.5710554,-0.14861315,0.18270172,0.68829244,0.68860775,-0.19858468,0.16869096,0.89627403,1.1246411,0.48867476,0.4761953,1.0063605,0.33576828,-0.22963795,0.059579033,0.37805176,-0.03370356,-0.52574235,-0.42834198,-0.054654405,662.01465,759.12085,861.06226,710.7692,969.45056,-0.1834716796875,0.00408935546875,1.01104736328125,1.368255615234375,-1.592559814453125,6.69921875,1,1.0,1.0,1.0,1.0,55.00
2022-11-23 20:14:59.985,0.5710554,-0.14861315,0.18270172,0.68829244,0.68860775,-0.19858468,0.16869096,0.89627403,1.1246411,0.48867476,0.4761953,1.0063605,0.33576828,-0.22963795,0.059579033,0.37805176,-0.03370356,-0.52574235,-0.42834198,-0.054654405,705.9341,755.89746,858.6447,745.82416,1114.5055,-0.1834716796875,0.00408935546875,1.01104736328125,1.368255615234375,-1.592559814453125,6.69921875,1,1.0,1.0,1.0,1.0,55.00
2022-11-23 20:14:59.985,0.5710554,-0.14861315,0.18270172,0.68829244,0.68860775,-0.19858468,0.16869096,0.89627403,1.1246411,0.48867476,0.4761953,1.0063605,0.33576828,-0.22963795,0.059579033,0.37805176,-0.03370356,-0.52574235,-0.42834198,-0.054654405,729.304,758.71796,858.24176,755.4945,1011.3553,-0.1834716796875,0.00408935546875,1.01104736328125,1.368255615234375,-1.592559814453125,6.69921875,1,1.0,1.0,1.0,1.0,55.00
2022-11-23 20:14:59.985,0.5710554,-0.14861315,0.18270172,0.68829244,0.68860775,-0.19858468,0.16869096,0.89627403,1.1246411,0.48867476,0.4761953,1.0063605,0.33576828,-0.22963795,0.059579033,0.37805176,-0.03370356,-0.52574235,-0.42834198,-0.054654405,686.5934,755.09155,852.6007,720.84247,866.7033,-0.1834716796875,0.00408935546875,1.01104736328125,1.368255615234375,-1.592559814453125,6.69921875,1,1.0,1.0,1.0,1.0,55.00
2022-11-23 20:14:59.985,0.5710554,-0.14861315,0.18270172,0.68829244,0.68860775,-0.19858468,0.16869096,0.89627403,1.1246411,0.48867476,0.4761953,1.0063605,0.33576828,-0.22963795,0.059579033,0.37805176,-0.03370356,-0.52574235,-0.42834198,-0.054654405,667.25275,750.65936,853.00366,711.5751,894.5055,-0.1834716796875,0.00408935546875,1.01104736328125,1.368255615234375,-1.592559814453125,6.69921875,1,1.0,1.0,1.0,1.0,55.00
2022-11-23 20:14:59.986,0.57131517,-5.4566877E-5,0.21456543,0.65946084,0.71626276,-0.0666521,0.23842765,0.92346114,1.1246411,0.47957602,0.47548443,1.0063605,0.3483369,-0.22848845,0.052090477,0.38289964,-0.021378264,-0.51789,-0.4481028,-0.055718485,717.2161,765.16486,863.47986,754.2857,824.7985,-0.1834716796875,0.00408935546875,1.01104736328125,1.368255615234375,-1.592559814453125,6.69921875,1,1.0,1.0,1.0,1.0,55.00
2022-11-23 20:15:00.033,0.57131517,-5.4566877E-5,0.21456543,0.65946084,0.71626276,-0.0666521,0.23842765,0.92346114,1.1246411,0.47957602,0.47548443,1.0063605,0.3483369,-0.22848845,0.052090477,0.38289964,-0.021378264,-0.51789,-0.4481028,-0.055718485,760.32965,774.0293,858.6447,777.25275,756.30035,-0.20428466796875,0.0042724609375,0.996826171875,-0.059814453125,1.45050048828125,8.62823486328125,1,1.0,1.0,1.0,1.0,55.00
2022-11-23 20:15:00.033,0.57131517,-5.4566877E-5,0.21456543,0.65946084,0.71626276,-0.0666521,0.23842765,0.92346114,1.1246411,0.47957602,0.47548443,1.0063605,0.3483369,-0.22848845,0.052090477,0.38289964,-0.021378264,-0.51789,-0.4481028,-0.055718485,730.9158,764.7619,847.3626,753.47986,768.3883,-0.20428466796875,0.0042724609375,0.996826171875,-0.059814453125,1.45050048828125,8.62823486328125,1,1.0,1.0,1.0,1.0,55.00
2022-11-23 20:15:00.033,0.57131517,-5.4566877E-5,0.21456543,0.65946084,0.71626276,-0.0666521,0.23842765,0.92346114,1.1246411,0.47957602,0.47548443,1.0063605,0.3483369,-0.22848845,0.052090477,0.38289964,-0.021378264,-0.51789,-0.4481028,-0.055718485,684.9817,757.1062,844.5421,722.0513,653.5531,-0.20428466796875,0.0042724609375,0.996826171875,-0.059814453125,1.45050048828125,8.62823486328125,1,1.0,1.0,1.0,1.0,55.00
2022-11-23 20:15:00.034,0.57131517,-5.4566877E-5,0.21456543,0.65946084,0.71626276,-0.0666521,0.23842765,0.92346114,1.1246411,0.47957602,0.47548443,1.0063605,0.3483369,-0.22848845,0.052090477,0.38289964,-0.021378264,-0.51789,-0.4481028,-0.055718485,705.9341,759.5238,842.52747,745.42126,666.8498,-0.20428466796875,0.0042724609375,0.996826171875,-0.059814453125,1.45050048828125,8.62823486328125,1,1.0,1.0,1.0,1.0,55.00
2022-11-23 20:15:00.034,0.57131517,-5.4566877E-5,0.21456543,0.65946084,0.71626276,-0.0666521,0.23842765,0.92346114,1.1246411,0.47957602,0.47548443,1.0063605,0.3483369,-0.22848845,0.052090477,0.38289964,-0.021378264,-0.51789,-0.4481028,-0.055718485,763.5531,770.0,848.97437,797.8022,816.7399,-0.20428466796875,0.0042724609375,0.996826171875,-0.059814453125,1.45050048828125,8.62823486328125,1,1.0,1.0,1.0,1.0,55.00
2022-11-23 20:15:00.034,0.57131517,-5.4566877E-5,0.21456543,0.65946084,0.71626276,-0.0666521,0.23842765,0.92346114,1.1246411,0.47957602,0.47548443,1.0063605,0.3483369,-0.22848845,0.052090477,0.38289964,-0.021378264,-0.51789,-0.4481028,-0.055718485,751.06226,774.0293,855.82416,792.1612,919.89014,-0.20428466796875,0.0042724609375,0.996826171875,-0.059814453125,1.45050048828125,8.62823486328125,1,1.0,1.0,1.0,1.0,55.00
2022-11-23 20:15:00.034,0.57131517,-5.4566877E-5,0.21456543,0.65946084,0.71626276,-0.0666521,0.23842765,0.92346114,1.1246411,0.47957602,0.47548443,1.0063605,0.3483369,-0.22848845,0.052090477,0.38289964,-0.021378264,-0.51789,-0.4481028,-0.055718485,719.2308,771.6117,854.21246,768.3883,975.89746,-0.20428466796875,0.0042724609375,0.996826171875,-0.059814453125,1.45050048828125,8.62823486328125,1,1.0,1.0,1.0,1.0,55.00
2022-11-23 20:15:00.035,0.57131517,-5.4566877E-5,0.21456543,0.65946084,0.71626276,-0.0666521,0.23842765,0.92346114,1.1246411,0.47957602,0.47548443,1.0063605,0.3483369,-0.22848845,0.052090477,0.38289964,-0.021378264,-0.51789,-0.4481028,-0.055718485,752.674,765.56775,853.8095,780.07324,761.9414,-0.20428466796875,0.0042724609375,0.996826171875,-0.059814453125,1.45050048828125,8.62823486328125,1,1.0,1.0,1.0,1.0,55.00
2022-11-23 20:15:00.035,0.57131517,-5.4566877E-5,0.21456543,0.65946084,0.71626276,-0.0666521,0.23842765,0.92346114,1.1246411,0.47957602,0.47548443,1.0063605,0.3483369,-0.22848845,0.052090477,0.38289964,-0.021378264,-0.51789,-0.4481028,-0.055718485,798.20514,772.8205,836.8865,800.2198,718.8278,-0.20428466796875,0.0042724609375,0.996826171875,-0.059814453125,1.45050048828125,8.62823486328125,1,1.0,1.0,1.0,1.0,55.00
2022-11-23 20:15:00.035,0.57131517,-5.4566877E-5,0.21456543,0.65946084,0.71626276,-0.0666521,0.23842765,0.92346114,1.1246411,0.47957602,0.47548443,1.0063605,0.3483369,-0.22848845,0.052090477,0.38289964,-0.021378264,-0.51789,-0.4481028,-0.055718485,794.57874,779.67035,817.9487,797.3993,874.7619,-0.20428466796875,0.0042724609375,0.996826171875,-0.059814453125,1.45050048828125,8.62823486328125,1,1.0,1.0,1.0,1.0,55.00
2022-11-23 20:15:00.036,0.57131517,-5.4566877E-5,0.21456543,0.65946084,0.71626276,-0.0666521,0.23842765,0.92346114,1.1246411,0.47957602,0.47548443,1.0063605,0.3483369,-0.22848845,0.052090477,0.38289964,-0.021378264,-0.51789,-0.4481028,-0.055718485,743.4066,774.83514,816.337,775.64105,832.4542,-0.20428466796875,0.0042724609375,0.996826171875,-0.059814453125,1.45050048828125,8.62823486328125,1,1.0,1.0,1.0,1.0,55.00
2022-11-23 20:15:00.036,0.57131517,-5.4566877E-5,0.21456543,0.65946084,0.71626276,-0.0666521,0.23842765,0.92346114,1.1246411,0.47957602,0.47548443,1.0063605,0.3483369,-0.22848845,0.052090477,0.38289964,-0.021378264,-0.51789,-0.4481028,-0.055718485,738.1685,770.0,823.1868,778.86444,647.1062,-0.20428466796875,0.0042724609375,0.996826171875,-0.059814453125,1.45050048828125,8.62823486328125,1,1.0,1.0,1.0,1.0,55.00
2022-11-23 20:15:00.084,0.57131517,-5.4566877E-5,0.21456543,0.65946084,0.71626276,-0.0666521,0.23842765,0.92346114,1.1246411,0.47957602,0.47548443,1.0063605,0.3483369,-0.22848845,0.052090477,0.38289964,-0.021378264,-0.51789,-0.4481028,-0.055718485,790.14655,777.25275,823.1868,821.1722,643.47986,-0.21044921875,-0.00701904296875,0.99853515625,-1.592559814453125,1.592559814453125,8.32916259765625,1,1.0,1.0,1.0,1.0,55.00
2022-11-23 20:15:00.084,0.57131517,-5.4566877E-5,0.21456543,0.65946084,0.71626276,-0.0666521,0.23842765,0.92346114,1.1246411,0.47957602,0.47548443,1.0063605,0.3483369,-0.22848845,0.052090477,0.38289964,-0.021378264,-0.51789,-0.4481028,-0.055718485,815.12823,786.9231,812.3077,830.0366,788.1319,-0.21044921875,-0.00701904296875,0.99853515625,-1.592559814453125,1.592559814453125,8.32916259765625,1,1.0,1.0,1.0,1.0,55.00
2022-11-23 20:15:00.084,0.57131517,-5.4566877E-5,0.21456543,0.65946084,0.71626276,-0.0666521,0.23842765,0.92346114,1.1246411,0.47957602,0.47548443,1.0063605,0.3483369,-0.22848845,0.052090477,0.38289964,-0.021378264,-0.51789,-0.4481028,-0.055718485,785.31134,789.7436,809.89014,800.6227,783.69965,-0.21044921875,-0.00701904296875,0.99853515625,-1.592559814453125,1.592559814453125,8.32916259765625,1,1.0,1.0,1.0,1.0,55.00
2022-11-23 20:15:00.085,0.57131517,-5.4566877E-5,0.21456543,0.65946084,0.71626276,-0.0666521,0.23842765,0.92346114,1.1246411,0.47957602,0.47548443,1.0063605,0.3483369,-0.22848845,0.052090477,0.38289964,-0.021378264,-0.51789,-0.4481028,-0.055718485,761.53845,790.54944,807.0696,781.28204,643.8828,-0.21044921875,-0.00701904296875,0.99853515625,-1.592559814453125,1.592559814453125,8.32916259765625,1,1.0,1.0,1.0,1.0,55.00
2022-11-23 20:15:00.085,0.57131517,-5.4566877E-5,0.21456543,0.65946084,0.71626276,-0.0666521,0.23842765,0.92346114,1.1246411,0.47957602,0.47548443,1.0063605,0.3483369,-0.22848845,0.052090477,0.38289964,-0.021378264,-0.51789,-0.4481028,-0.055718485,794.9817,793.36993,807.0696,804.2491,714.3956,-0.21044921875,-0.00701904296875,0.99853515625,-1.592559814453125,1.592559814453125,8.32916259765625,1,1.0,1.0,1.0,1.0,55.00
2022-11-23 20:15:00.085,0.57131517,-5.4566877E-5,0.21456543,0.65946084,0.71626276,-0.0666521,0.23842765,0.92346114,1.1246411,0.47957602,0.47548443,1.0063605,0.3483369,-0.22848845,0.052090477,0.38289964,-0.021378264,-0.51789,-0.4481028,-0.055718485,835.2747,791.75824,811.9048,838.9011,989.19415,-0.21044921875,-0.00701904296875,0.99853515625,-1.592559814453125,1.592559814453125,8.32916259765625,1,1.0,1.0,1.0,1.0,55.00
2022-11-23 20:15:00.085,0.57131517,-5.4566877E-5,0.21456543,0.65946084,0.71626276,-0.0666521,0.23842765,0.92346114,1.1246411,0.47957602,0.47548443,1.0063605,0.3483369,-0.22848845,0.052090477,0.38289964,-0.021378264,-0.51789,-0.4481028,-0.055718485,820.7692,789.7436,817.1429,835.2747,917.47253,-0.21044921875,-0.00701904296875,0.99853515625,-1.592559814453125,1.592559814453125,8.32916259765625,1,1.0,1.0,1.0,1.0,55.00
2022-11-23 20:15:00.086,0.57131517,-5.4566877E-5,0.21456543,0.65946084,0.71626276,-0.0666521,0.23842765,0.92346114,1.1246411,0.47957602,0.47548443,1.0063605,0.3483369,-0.22848845,0.052090477,0.38289964,-0.021378264,-0.51789,-0.4481028,-0.055718485,787.72894,794.57874,818.7546,803.44324,642.27106,-0.21044921875,-0.00701904296875,0.99853515625,-1.592559814453125,1.592559814453125,8.32916259765625,1,1.0,1.0,1.0,1.0,55.00
2022-11-23 20:15:00.086,0.57131517,-5.4566877E-5,0.21456543,0.65946084,0.71626276,-0.0666521,0.23842765,0.92346114,1.1246411,0.47957602,0.47548443,1.0063605,0.3483369,-0.22848845,0.052090477,0.38289964,-0.021378264,-0.51789,-0.4481028,-0.055718485,803.44324,797.3993,813.1135,807.8755,665.64105,-0.21044921875,-0.00701904296875,0.99853515625,-1.592559814453125,1.592559814453125,8.32916259765625,1,1.0,1.0,1.0,1.0,55.00
2022-11-23 20:15:00.086,0.57131517,-5.4566877E-5,0.21456543,0.65946084,0.71626276,-0.0666521,0.23842765,0.92346114,1.1246411,0.47957602,0.47548443,1.0063605,0.3483369,-0.22848845,0.052090477,0.38289964,-0.021378264,-0.51789,-0.4481028,-0.055718485,845.7509,794.57874,806.6667,845.34796,991.2088,-0.21044921875,-0.00701904296875,0.99853515625,-1.592559814453125,1.592559814453125,8.32916259765625,1,1.0,1.0,1.0,1.0,55.00
2022-11-23 20:15:00.086,0.57131517,-5.4566877E-5,0.21456543,0.65946084,0.71626276,-0.0666521,0.23842765,0.92346114,1.1246411,0.47957602,0.47548443,1.0063605,0.3483369,-0.22848845,0.052090477,0.38289964,-0.021378264,-0.51789,-0.4481028,-0.055718485,839.707,792.5641,803.8461,832.0513,1009.34064,-0.21044921875,-0.00701904296875,0.99853515625,-1.592559814453125,1.592559814453125,8.32916259765625,1,1.0,1.0,1.0,1.0,55.00
2022-11-23 20:15:00.087,0.57131517,-5.4566877E-5,0.21456543,0.65946084,0.71626276,-0.0666521,0.23842765,0.92346114,1.1246411,0.47957602,0.47548443,1.0063605,0.3483369,-0.22848845,0.052090477,0.38289964,-0.021378264,-0.51789,-0.4481028,-0.055718485,790.9524,798.60803,809.4872,795.78754,676.9231,-0.21044921875,-0.00701904296875,0.99853515625,-1.592559814453125,1.592559814453125,8.32916259765625,1,1.0,1.0,1.0,1.0,55.00
2022-11-23 20:15:00.111,0.57131517,-5.4566877E-5,0.21456543,0.65946084,0.71626276,-0.0666521,0.23842765,0.92346114,1.1246411,0.47957602,0.47548443,1.0063605,0.3483369,-0.22848845,0.052090477,0.38289964,-0.021378264,-0.51789,-0.4481028,-0.055718485,799.41394,804.65204,809.4872,815.12823,663.6264,-0.21038818359375,-0.00885009765625,0.98748779296875,-2.452392578125,0.052337646484375,8.44879150390625,1,1.0,1.0,1.0,1.0,55.00
2022-11-23 20:15:00.111,0.5765272,0.21131508,0.31023392,0.6269007,0.74496794,0.066536315,0.30615607,0.94950193,1.1246411,0.4916847,0.47548443,1.0063605,0.36240742,-0.23215407,0.036887534,0.38662454,-0.00726137,-0.5021455,-0.46357703,-0.058214422,844.5421,803.44324,805.05493,860.2564,944.87177,-0.21038818359375,-0.00885009765625,0.98748779296875,-2.452392578125,0.052337646484375,8.44879150390625,1,1.0,1.0,1.0,1.0,55.00
2022-11-23 20:15:00.113,0.5765272,0.21131508,0.31023392,0.6269007,0.74496794,0.066536315,0.30615607,0.94950193,1.1246411,0.4916847,0.47548443,1.0063605,0.36240742,-0.23215407,0.036887534,0.38662454,-0.00726137,-0.5021455,-0.46357703,-0.058214422,848.5714,801.8315,810.696,861.06226,971.8681,-0.21038818359375,-0.00885009765625,0.98748779296875,-2.452392578125,0.052337646484375,8.44879150390625,1,1.0,1.0,1.0,1.0,55.00
2022-11-23 20:15:00.113,0.5765272,0.21131508,0.31023392,0.6269007,0.74496794,0.066536315,0.30615607,0.94950193,1.1246411,0.4916847,0.47548443,1.0063605,0.36240742,-0.23215407,0.036887534,0.38662454,-0.00726137,-0.5021455,-0.46357703,-0.058214422,807.47253,803.0403,813.91943,828.4249,803.44324,-0.21038818359375,-0.00885009765625,0.98748779296875,-2.452392578125,0.052337646484375,8.44879150390625,1,1.0,1.0,1.0,1.0,55.00
2022-11-23 20:15:00.113,0.5765272,0.21131508,0.31023392,0.6269007,0.74496794,0.066536315,0.30615607,0.94950193,1.1246411,0.4916847,0.47548443,1.0063605,0.36240742,-0.23215407,0.036887534,0.38662454,-0.00726137,-0.5021455,-0.46357703,-0.058214422,780.4762,801.8315,811.50183,813.91943,682.1612,-0.21038818359375,-0.00885009765625,0.98748779296875,-2.452392578125,0.052337646484375,8.44879150390625,1,1.0,1.0,1.0,1.0,55.00
2022-11-23 20:15:00.113,0.5765272,0.21131508,0.31023392,0.6269007,0.74496794,0.066536315,0.30615607,0.94950193,1.1246411,0.4916847,0.47548443,1.0063605,0.36240742,-0.23215407,0.036887534,0.38662454,-0.00726137,-0.5021455,-0.46357703,-0.058214422,814.3223,798.60803,807.47253,838.0952,873.5531,-0.21038818359375,-0.00885009765625,0.98748779296875,-2.452392578125,0.052337646484375,8.44879150390625,1,1.0,1.0,1.0,1.0,55.00
2022-11-23 20:15:00.114,0.5765272,0.21131508,0.31023392,0.6269007,0.74496794,0.066536315,0.30615607,0.94950193,1.1246411,0.4916847,0.47548443,1.0063605,0.36240742,-0.23215407,0.036887534,0.38662454,-0.00726137,-0.5021455,-0.46357703,-0.058214422,853.00366,800.2198,806.26373,854.61536,970.65936,-0.21038818359375,-0.00885009765625,0.98748779296875,-2.452392578125,0.052337646484375,8.44879150390625,1,1.0,1.0,1.0,1.0,55.00
2022-11-23 20:15:00.114,0.5765272,0.21131508,0.31023392,0.6269007,0.74496794,0.066536315,0.30615607,0.94950193,1.1246411,0.4916847,0.47548443,1.0063605,0.36240742,-0.23215407,0.036887534,0.38662454,-0.00726137,-0.5021455,-0.46357703,-0.058214422,823.9927,799.41394,810.293,833.663,778.0586,-0.21038818359375,-0.00885009765625,0.98748779296875,-2.452392578125,0.052337646484375,8.44879150390625,1,1.0,1.0,1.0,1.0,55.00
2022-11-23 20:15:00.114,0.5765272,0.21131508,0.31023392,0.6269007,0.74496794,0.066536315,0.30615607,0.94950193,1.1246411,0.4916847,0.47548443,1.0063605,0.36240742,-0.23215407,0.036887534,0.38662454,-0.00726137,-0.5021455,-0.46357703,-0.058214422,783.69965,798.60803,809.89014,810.293,686.5934,-0.21038818359375,-0.00885009765625,0.98748779296875,-2.452392578125,0.052337646484375,8.44879150390625,1,1.0,1.0,1.0,1.0,55.00
2022-11-23 20:15:00.115,0.5765272,0.21131508,0.31023392,0.6269007,0.74496794,0.066536315,0.30615607,0.94950193,1.1246411,0.4916847,0.47548443,1.0063605,0.36240742,-0.23215407,0.036887534,0.38662454,-0.00726137,-0.5021455,-0.46357703,-0.058214422,811.0989,801.8315,808.2784,828.022,769.19415,-0.21038818359375,-0.00885009765625,0.98748779296875,-2.452392578125,0.052337646484375,8.44879150390625,1,1.0,1.0,1.0,1.0,55.00
2022-11-23 20:15:00.115,0.5765272,0.21131508,0.31023392,0.6269007,0.74496794,0.066536315,0.30615607,0.94950193,1.1246411,0.4916847,0.47548443,1.0063605,0.36240742,-0.23215407,0.036887534,0.38662454,-0.00726137,-0.5021455,-0.46357703,-0.058214422,858.6447,801.02563,809.4872,857.03296,890.07324,-0.21038818359375,-0.00885009765625,0.98748779296875,-2.452392578125,0.052337646484375,8.44879150390625,1,1.0,1.0,1.0,1.0,55.00
2022-11-23 20:15:00.115,0.5765272,0.21131508,0.31023392,0.6269007,0.74496794,0.066536315,0.30615607,0.94950193,1.1246411,0.4916847,0.47548443,1.0063605,0.36240742,-0.23215407,0.036887534,0.38662454,-0.00726137,-0.5021455,-0.46357703,-0.058214422,836.8865,803.44324,805.4579,833.2601,787.326,-0.21038818359375,-0.00885009765625,0.98748779296875,-2.452392578125,0.052337646484375,8.44879150390625,1,1.0,1.0,1.0,1.0,55.00
2022-11-23 20:15:00.166,0.5765272,0.21131508,0.31023392,0.6269007,0.74496794,0.066536315,0.30615607,0.94950193,1.1246411,0.4916847,0.47548443,1.0063605,0.36240742,-0.23215407,0.036887534,0.38662454,-0.00726137,-0.5021455,-0.46357703,-0.058214422,784.10254,805.4579,799.81683,803.44324,682.96704,-0.21038818359375,-0.00885009765625,0.98748779296875,-2.452392578125,0.052337646484375,8.44879150390625,1,1.0,1.0,1.0,1.0,55.00
2022-11-23 20:15:00.166,0.5765272,0.21131508,0.31023392,0.6269007,0.74496794,0.066536315,0.30615607,0.94950193,1.1246411,0.4916847,0.47548443,1.0063605,0.36240742,-0.23215407,0.036887534,0.38662454,-0.00726137,-0.5021455,-0.46357703,-0.058214422,786.52014,803.8461,797.3993,817.1429,886.8498,-0.21038818359375,-0.00885009765625,0.98748779296875,-2.452392578125,0.052337646484375,8.44879150390625,1,1.0,1.0,1.0,1.0,55.00
2022-11-23 20:15:00.166,0.5765272,0.21131508,0.31023392,0.6269007,0.74496794,0.066536315,0.30615607,0.94950193,1.1246411,0.4916847,0.47548443,1.0063605,0.36240742,-0.23215407,0.036887534,0.38662454,-0.00726137,-0.5021455,-0.46357703,-0.058214422,841.7216,803.44324,797.8022,846.1539,844.1392,-0.21038818359375,-0.00885009765625,0.98748779296875,-2.452392578125,0.052337646484375,8.44879150390625,1,1.0,1.0,1.0,1.0,55.00
2022-11-23 20:15:00.167,0.5765272,0.21131508,0.31023392,0.6269007,0.74496794,0.066536315,0.30615607,0.94950193,1.1246411,0.4916847,0.47548443,1.0063605,0.36240742,-0.23215407,0.036887534,0.38662454,-0.00726137,-0.5021455,-0.46357703,-0.058214422,846.1539,809.4872,799.011,836.8865,802.23444,-0.21038818359375,-0.00885009765625,0.98748779296875,-2.452392578125,0.052337646484375,8.44879150390625,1,1.0,1.0,1.0,1.0,55.00
2022-11-23 20:15:00.167,0.5765272,0.21131508,0.31023392,0.6269007,0.74496794,0.066536315,0.30615607,0.94950193,1.1246411,0.4916847,0.47548443,1.0063605,0.36240742,-0.23215407,0.036887534,0.38662454,-0.00726137,-0.5021455,-0.46357703,-0.058214422,782.0879,809.89014,794.9817,797.8022,750.2564,-0.21038818359375,-0.00885009765625,0.98748779296875,-2.452392578125,0.052337646484375,8.44879150390625,1,1.0,1.0,1.0,1.0,55.00
2022-11-23 20:15:00.167,0.5765272,0.21131508,0.31023392,0.6269007,0.74496794,0.066536315,0.30615607,0.94950193,1.1246411,0.4916847,0.47548443,1.0063605,0.36240742,-0.23215407,0.036887534,0.38662454,-0.00726137,-0.5021455,-0.46357703,-0.058214422,775.64105,804.65204,791.75824,788.93774,755.4945,-0.21038818359375,-0.00885009765625,0.98748779296875,-2.452392578125,0.052337646484375,8.44879150390625,1,1.0,1.0,1.0,1.0,55.00
2022-11-23 20:15:00.167,0.5765272,0.21131508,0.31023392,0.6269007,0.74496794,0.066536315,0.30615607,0.94950193,1.1246411,0.4916847,0.47548443,1.0063605,0.36240742,-0.23215407,0.036887534,0.38662454,-0.00726137,-0.5021455,-0.46357703,-0.058214422,829.6337,803.0403,792.1612,821.978,860.65936,-0.21038818359375,-0.00885009765625,0.98748779296875,-2.452392578125,0.052337646484375,8.44879150390625,1,1.0,1.0,1.0,1.0,55.00
2022-11-23 20:15:00.168,0.5765272,0.21131508,0.31023392,0.6269007,0.74496794,0.066536315,0.30615607,0.94950193,1.1246411,0.4916847,0.47548443,1.0063605,0.36240742,-0.23215407,0.036887534,0.38662454,-0.00726137,-0.5021455,-0.46357703,-0.058214422,846.9597,808.2784,790.14655,836.8865,886.8498,-0.21038818359375,-0.00885009765625,0.98748779296875,-2.452392578125,0.052337646484375,8.44879150390625,1,1.0,1.0,1.0,1.0,55.00
2022-11-23 20:15:00.168,0.5765272,0.21131508,0.31023392,0.6269007,0.74496794,0.066536315,0.30615607,0.94950193,1.1246411,0.4916847,0.47548443,1.0063605,0.36240742,-0.23215407,0.036887534,0.38662454,-0.00726137,-0.5021455,-0.46357703,-0.058214422,802.6374,816.337,790.9524,800.6227,951.31866,-0.21038818359375,-0.00885009765625,0.98748779296875,-2.452392578125,0.052337646484375,8.44879150390625,1,1.0,1.0,1.0,1.0,55.00
2022-11-23 20:15:00.168,0.5765272,0.21131508,0.31023392,0.6269007,0.74496794,0.066536315,0.30615607,0.94950193,1.1246411,0.4916847,0.47548443,1.0063605,0.36240742,-0.23215407,0.036887534,0.38662454,-0.00726137,-0.5021455,-0.46357703,-0.058214422,774.0293,814.7253,792.96704,777.6557,878.3883,-0.21038818359375,-0.00885009765625,0.98748779296875,-2.452392578125,0.052337646484375,8.44879150390625,1,1.0,1.0,1.0,1.0,55.00
2022-11-23 20:15:00.169,0.5765272,0.21131508,0.31023392,0.6269007,0.74496794,0.066536315,0.30615607,0.94950193,1.1246411,0.4916847,0.47548443,1.0063605,0.36240742,-0.23215407,0.036887534,0.38662454,-0.00726137,-0.5021455,-0.46357703,-0.058214422,813.1135,807.8755,791.3553,804.2491,748.6447,-0.21038818359375,-0.00885009765625,0.98748779296875,-2.452392578125,0.052337646484375,8.44879150390625,1,1.0,1.0,1.0,1.0,55.00
2022-11-23 20:15:00.169,0.5765272,0.21131508,0.31023392,0.6269007,0.74496794,0.066536315,0.30615607,0.94950193,1.1246411,0.4916847,0.47548443,1.0063605,0.36240742,-0.23215407,0.036887534,0.38662454,-0.00726137,-0.5021455,-0.46357703,-0.058214422,850.58606,805.8608,790.14655,825.2015,856.63007,-0.21038818359375,-0.00885009765625,0.98748779296875,-2.452392578125,0.052337646484375,8.44879150390625,1,1.0,1.0,1.0,1.0,55.00
2022-11-23 20:15:00.193,0.5765272,0.21131508,0.31023392,0.6269007,0.74496794,0.066536315,0.30615607,0.94950193,1.1246411,0.4916847,0.47548443,1.0063605,0.36240742,-0.23215407,0.036887534,0.38662454,-0.00726137,-0.5021455,-0.46357703,-0.058214422,817.1429,808.2784,789.34064,799.011,878.7912,-0.22314453125,-0.0333251953125,0.99395751953125,-1.973876953125,-1.502838134765625,5.87677001953125,1,1.0,1.0,1.0,1.0,55.00
2022-11-23 20:15:00.193,0.5765272,0.21131508,0.31023392,0.6269007,0.74496794,0.066536315,0.30615607,0.94950193,1.1246411,0.4916847,0.47548443,1.0063605,0.36240742,-0.23215407,0.036887534,0.38662454,-0.00726137,-0.5021455,-0.46357703,-0.058214422,769.59705,807.8755,790.9524,772.8205,686.5934,-0.22314453125,-0.0333251953125,0.99395751953125,-1.973876953125,-1.502838134765625,5.87677001953125,1,1.0,1.0,1.0,1.0,55.00
2022-11-23 20:15:00.194,0.5765272,0.21131508,0.31023392,0.6269007,0.74496794,0.066536315,0.30615607,0.94950193,1.1246411,0.4916847,0.47548443,1.0063605,0.36240742,-0.23215407,0.036887534,0.38662454,-0.00726137,-0.5021455,-0.46357703,-0.058214422,793.7729,808.2784,792.96704,788.93774,656.77655,-0.22314453125,-0.0333251953125,0.99395751953125,-1.973876953125,-1.502838134765625,5.87677001953125,1,1.0,1.0,1.0,1.0,55.00
2022-11-23 20:15:00,,,,,,,,,,,,,,,,,,,,,,,,,,,,,,,,,,,,,,/muse/elements/blink
2022-11-23 20:15:00.194,0.58421403,0.45239097,0.48902243,0.6057951,0.77436423,0.19763806,0.3919258,0.97329634,1.1246411,0.54325795,0.47548443,1.0063605,0.37741137,-0.23731303,0.020549247,0.3875666,7.299384E-4,-0.47659326,-0.46464393,-0.061438773,845.7509,807.8755,793.7729,821.5751,853.4066,-0.22314453125,-0.0333251953125,0.99395751953125,-1.973876953125,-1.502838134765625,5.87677001953125,1,1.0,1.0,1.0,1.0,55.00
2022-11-23 20:15:00.196,0.58421403,0.45239097,0.48902243,0.6057951,0.77436423,0.19763806,0.3919258,0.97329634,1.1246411,0.54325795,0.47548443,1.0063605,0.37741137,-0.23731303,0.020549247,0.3875666,7.299384E-4,-0.47659326,-0.46464393,-0.061438773,835.2747,812.71063,798.20514,819.9634,917.0696,-0.22314453125,-0.0333251953125,0.99395751953125,-1.973876953125,-1.502838134765625,5.87677001953125,1,1.0,1.0,1.0,1.0,55.00
2022-11-23 20:15:00.196,0.58421403,0.45239097,0.48902243,0.6057951,0.77436423,0.19763806,0.3919258,0.97329634,1.1246411,0.54325795,0.47548443,1.0063605,0.37741137,-0.23731303,0.020549247,0.3875666,7.299384E-4,-0.47659326,-0.46464393,-0.061438773,779.2674,813.1135,797.3993,792.5641,788.5348,-0.22314453125,-0.0333251953125,0.99395751953125,-1.973876953125,-1.502838134765625,5.87677001953125,1,1.0,1.0,1.0,1.0,55.00
2022-11-23 20:15:00.196,0.58421403,0.45239097,0.48902243,0.6057951,0.77436423,0.19763806,0.3919258,0.97329634,1.1246411,0.54325795,0.47548443,1.0063605,0.37741137,-0.23731303,0.020549247,0.3875666,7.299384E-4,-0.47659326,-0.46464393,-0.061438773,783.2967,806.26373,795.38464,797.8022,746.63007,-0.22314453125,-0.0333251953125,0.99395751953125,-1.973876953125,-1.502838134765625,5.87677001953125,1,1.0,1.0,1.0,1.0,55.00
2022-11-23 20:15:00.196,0.58421403,0.45239097,0.48902243,0.6057951,0.77436423,0.19763806,0.3919258,0.97329634,1.1246411,0.54325795,0.47548443,1.0063605,0.37741137,-0.23731303,0.020549247,0.3875666,7.299384E-4,-0.47659326,-0.46464393,-0.061438773,842.1245,809.4872,796.99634,827.2161,890.87915,-0.22314453125,-0.0333251953125,0.99395751953125,-1.973876953125,-1.502838134765625,5.87677001953125,1,1.0,1.0,1.0,1.0,55.00
2022-11-23 20:15:00.197,0.58421403,0.45239097,0.48902243,0.6057951,0.77436423,0.19763806,0.3919258,0.97329634,1.1246411,0.54325795,0.47548443,1.0063605,0.37741137,-0.23731303,0.020549247,0.3875666,7.299384E-4,-0.47659326,-0.46464393,-0.061438773,847.3626,808.68134,796.99634,826.0073,1170.5128,-0.22314453125,-0.0333251953125,0.99395751953125,-1.973876953125,-1.502838134765625,5.87677001953125,1,1.0,1.0,1.0,1.0,55.00
2022-11-23 20:15:00.197,0.58421403,0.45239097,0.48902243,0.6057951,0.77436423,0.19763806,0.3919258,0.97329634,1.1246411,0.54325795,0.47548443,1.0063605,0.37741137,-0.23731303,0.020549247,0.3875666,7.299384E-4,-0.47659326,-0.46464393,-0.061438773,794.17584,803.0403,796.5934,784.10254,927.1429,-0.22314453125,-0.0333251953125,0.99395751953125,-1.973876953125,-1.502838134765625,5.87677001953125,1,1.0,1.0,1.0,1.0,55.00
2022-11-23 20:15:00.197,0.58421403,0.45239097,0.48902243,0.6057951,0.77436423,0.19763806,0.3919258,0.97329634,1.1246411,0.54325795,0.47548443,1.0063605,0.37741137,-0.23731303,0.020549247,0.3875666,7.299384E-4,-0.47659326,-0.46464393,-0.061438773,781.685,807.47253,797.8022,775.2381,622.52747,-0.22314453125,-0.0333251953125,0.99395751953125,-1.973876953125,-1.502838134765625,5.87677001953125,1,1.0,1.0,1.0,1.0,55.00
2022-11-23 20:15:00.197,0.58421403,0.45239097,0.48902243,0.6057951,0.77436423,0.19763806,0.3919258,0.97329634,1.1246411,0.54325795,0.47548443,1.0063605,0.37741137,-0.23731303,0.020549247,0.3875666,7.299384E-4,-0.47659326,-0.46464393,-0.061438773,822.381,805.4579,801.02563,805.8608,800.2198,-0.22314453125,-0.0333251953125,0.99395751953125,-1.973876953125,-1.502838134765625,5.87677001953125,1,1.0,1.0,1.0,1.0,55.00
2022-11-23 20:15:00.241,0.58421403,0.45239097,0.48902243,0.6057951,0.77436423,0.19763806,0.3919258,0.97329634,1.1246411,0.54325795,0.47548443,1.0063605,0.37741137,-0.23731303,0.020549247,0.3875666,7.299384E-4,-0.47659326,-0.46464393,-0.061438773,851.39197,798.60803,803.8461,822.7839,928.7546,-0.21612548828125,-0.01812744140625,0.976318359375,3.4991455078125,-2.22808837890625,6.975860595703125,1,1.0,1.0,1.0,1.0,55.00
2022-11-23 20:15:00.241,0.58421403,0.45239097,0.48902243,0.6057951,0.77436423,0.19763806,0.3919258,0.97329634,1.1246411,0.54325795,0.47548443,1.0063605,0.37741137,-0.23731303,0.020549247,0.3875666,7.299384E-4,-0.47659326,-0.46464393,-0.061438773,808.2784,798.20514,799.41394,795.38464,794.9817,-0.21612548828125,-0.01812744140625,0.976318359375,3.4991455078125,-2.22808837890625,6.975860595703125,1,1.0,1.0,1.0,1.0,55.00
2022-11-23 20:15:00.241,0.58421403,0.45239097,0.48902243,0.6057951,0.77436423,0.19763806,0.3919258,0.97329634,1.1246411,0.54325795,0.47548443,1.0063605,0.37741137,-0.23731303,0.020549247,0.3875666,7.299384E-4,-0.47659326,-0.46464393,-0.061438773,775.64105,802.6374,800.6227,776.4469,603.1868,-0.21612548828125,-0.01812744140625,0.976318359375,3.4991455078125,-2.22808837890625,6.975860595703125,1,1.0,1.0,1.0,1.0,55.00
2022-11-23 20:15:00.242,0.58421403,0.45239097,0.48902243,0.6057951,0.77436423,0.19763806,0.3919258,0.97329634,1.1246411,0.54325795,0.47548443,1.0063605,0.37741137,-0.23731303,0.020549247,0.3875666,7.299384E-4,-0.47659326,-0.46464393,-0.061438773,812.71063,807.0696,803.8461,810.696,725.6777,-0.21612548828125,-0.01812744140625,0.976318359375,3.4991455078125,-2.22808837890625,6.975860595703125,1,1.0,1.0,1.0,1.0,55.00
2022-11-23 20:15:00.242,0.58421403,0.45239097,0.48902243,0.6057951,0.77436423,0.19763806,0.3919258,0.97329634,1.1246411,0.54325795,0.47548443,1.0063605,0.37741137,-0.23731303,0.020549247,0.3875666,7.299384E-4,-0.47659326,-0.46464393,-0.061438773,851.79486,812.71063,805.05493,844.94507,997.6557,-0.21612548828125,-0.01812744140625,0.976318359375,3.4991455078125,-2.22808837890625,6.975860595703125,1,1.0,1.0,1.0,1.0,55.00
2022-11-23 20:15:00.242,0.58421403,0.45239097,0.48902243,0.6057951,0.77436423,0.19763806,0.3919258,0.97329634,1.1246411,0.54325795,0.47548443,1.0063605,0.37741137,-0.23731303,0.020549247,0.3875666,7.299384E-4,-0.47659326,-0.46464393,-0.061438773,825.2015,810.293,807.8755,818.7546,903.36993,-0.21612548828125,-0.01812744140625,0.976318359375,3.4991455078125,-2.22808837890625,6.975860595703125,1,1.0,1.0,1.0,1.0,55.00
2022-11-23 20:15:00.243,0.58421403,0.45239097,0.48902243,0.6057951,0.77436423,0.19763806,0.3919258,0.97329634,1.1246411,0.54325795,0.47548443,1.0063605,0.37741137,-0.23731303,0.020549247,0.3875666,7.299384E-4,-0.47659326,-0.46464393,-0.061438773,772.01465,805.8608,805.05493,775.2381,698.2784,-0.21612548828125,-0.01812744140625,0.976318359375,3.4991455078125,-2.22808837890625,6.975860595703125,1,1.0,1.0,1.0,1.0,55.00
2022-11-23 20:15:00.243,0.58421403,0.45239097,0.48902243,0.6057951,0.77436423,0.19763806,0.3919258,0.97329634,1.1246411,0.54325795,0.47548443,1.0063605,0.37741137,-0.23731303,0.020549247,0.3875666,7.299384E-4,-0.47659326,-0.46464393,-0.061438773,782.0879,808.2784,802.23444,793.36993,845.7509,-0.21612548828125,-0.01812744140625,0.976318359375,3.4991455078125,-2.22808837890625,6.975860595703125,1,1.0,1.0,1.0,1.0,55.00
2022-11-23 20:15:00.243,0.58421403,0.45239097,0.48902243,0.6057951,0.77436423,0.19763806,0.3919258,0.97329634,1.1246411,0.54325795,0.47548443,1.0063605,0.37741137,-0.23731303,0.020549247,0.3875666,7.299384E-4,-0.47659326,-0.46464393,-0.061438773,839.304,807.8755,806.26373,826.4103,1077.4359,-0.21612548828125,-0.01812744140625,0.976318359375,3.4991455078125,-2.22808837890625,6.975860595703125,1,1.0,1.0,1.0,1.0,55.00
2022-11-23 20:15:00.243,0.58421403,0.45239097,0.48902243,0.6057951,0.77436423,0.19763806,0.3919258,0.97329634,1.1246411,0.54325795,0.47548443,1.0063605,0.37741137,-0.23731303,0.020549247,0.3875666,7.299384E-4,-0.47659326,-0.46464393,-0.061438773,830.0366,805.4579,807.8755,815.12823,887.25275,-0.21612548828125,-0.01812744140625,0.976318359375,3.4991455078125,-2.22808837890625,6.975860595703125,1,1.0,1.0,1.0,1.0,55.00
2022-11-23 20:15:00.243,0.58421403,0.45239097,0.48902243,0.6057951,0.77436423,0.19763806,0.3919258,0.97329634,1.1246411,0.54325795,0.47548443,1.0063605,0.37741137,-0.23731303,0.020549247,0.3875666,7.299384E-4,-0.47659326,-0.46464393,-0.061438773,771.2088,805.8608,805.4579,776.8498,679.7436,-0.21612548828125,-0.01812744140625,0.976318359375,3.4991455078125,-2.22808837890625,6.975860595703125,1,1.0,1.0,1.0,1.0,55.00
2022-11-23 20:15:00.244,0.58421403,0.45239097,0.48902243,0.6057951,0.77436423,0.19763806,0.3919258,0.97329634,1.1246411,0.54325795,0.47548443,1.0063605,0.37741137,-0.23731303,0.020549247,0.3875666,7.299384E-4,-0.47659326,-0.46464393,-0.061438773,765.9707,806.6667,805.05493,774.0293,752.674,-0.21612548828125,-0.01812744140625,0.976318359375,3.4991455078125,-2.22808837890625,6.975860595703125,1,1.0,1.0,1.0,1.0,55.00
2022-11-23 20:15:00.291,0.58421403,0.45239097,0.48902243,0.6057951,0.77436423,0.19763806,0.3919258,0.97329634,1.1246411,0.54325795,0.47548443,1.0063605,0.37741137,-0.23731303,0.020549247,0.3875666,7.299384E-4,-0.47659326,-0.46464393,-0.061438773,815.5311,807.8755,804.65204,808.2784,819.15753,-0.21893310546875,-0.0023193359375,0.99871826171875,6.05621337890625,-2.10845947265625,6.6693115234375,1,1.0,1.0,1.0,1.0,55.00
2022-11-23 20:15:00.292,0.58421403,0.45239097,0.48902243,0.6057951,0.77436423,0.19763806,0.3919258,0.97329634,1.1246411,0.54325795,0.47548443,1.0063605,0.37741137,-0.23731303,0.020549247,0.3875666,7.299384E-4,-0.47659326,-0.46464393,-0.061438773,825.6044,808.2784,804.65204,809.0842,799.41394,-0.21893310546875,-0.0023193359375,0.99871826171875,6.05621337890625,-2.10845947265625,6.6693115234375,1,1.0,1.0,1.0,1.0,55.00
2022-11-23 20:15:00.292,0.58421403,0.45239097,0.48902243,0.6057951,0.77436423,0.19763806,0.3919258,0.97329634,1.1246411,0.54325795,0.47548443,1.0063605,0.37741137,-0.23731303,0.020549247,0.3875666,7.299384E-4,-0.47659326,-0.46464393,-0.061438773,776.4469,804.2491,804.2491,768.3883,739.7802,-0.21893310546875,-0.0023193359375,0.99871826171875,6.05621337890625,-2.10845947265625,6.6693115234375,1,1.0,1.0,1.0,1.0,55.00
2022-11-23 20:15:00.292,0.58421403,0.45239097,0.48902243,0.6057951,0.77436423,0.19763806,0.3919258,0.97329634,1.1246411,0.54325795,0.47548443,1.0063605,0.37741137,-0.23731303,0.020549247,0.3875666,7.299384E-4,-0.47659326,-0.46464393,-0.061438773,759.5238,806.26373,803.8461,760.7326,695.4579,-0.21893310546875,-0.0023193359375,0.99871826171875,6.05621337890625,-2.10845947265625,6.6693115234375,1,1.0,1.0,1.0,1.0,55.00
2022-11-23 20:15:00.293,0.58421403,0.45239097,0.48902243,0.6057951,0.77436423,0.19763806,0.3919258,0.97329634,1.1246411,0.54325795,0.47548443,1.0063605,0.37741137,-0.23731303,0.020549247,0.3875666,7.299384E-4,-0.47659326,-0.46464393,-0.061438773,799.011,809.4872,800.2198,793.36993,811.0989,-0.21893310546875,-0.0023193359375,0.99871826171875,6.05621337890625,-2.10845947265625,6.6693115234375,1,1.0,1.0,1.0,1.0,55.00
2022-11-23 20:15:00.293,0.58425784,0.6984803,0.5144556,0.5857905,0.80516326,0.3307867,0.41538954,0.99531764,1.1246411,0.6239153,0.47548443,1.0063605,0.39227265,-0.23903745,0.007844456,0.38460338,-0.004108499,-0.4454676,-0.46673062,-0.06497459,828.022,809.0842,797.8022,809.0842,934.3956,-0.21893310546875,-0.0023193359375,0.99871826171875,6.05621337890625,-2.10845947265625,6.6693115234375,1,1.0,1.0,1.0,1.0,55.00
2022-11-23 20:15:00.294,0.58425784,0.6984803,0.5144556,0.5857905,0.80516326,0.3307867,0.41538954,0.99531764,1.1246411,0.6239153,0.47548443,1.0063605,0.39227265,-0.23903745,0.007844456,0.38460338,-0.004108499,-0.4454676,-0.46673062,-0.06497459,790.14655,809.89014,797.3993,789.7436,867.9121,-0.21893310546875,-0.0023193359375,0.99871826171875,6.05621337890625,-2.10845947265625,6.6693115234375,1,1.0,1.0,1.0,1.0,55.00
2022-11-23 20:15:00.294,0.58425784,0.6984803,0.5144556,0.5857905,0.80516326,0.3307867,0.41538954,0.99531764,1.1246411,0.6239153,0.47548443,1.0063605,0.39227265,-0.23903745,0.007844456,0.38460338,-0.004108499,-0.4454676,-0.46673062,-0.06497459,745.82416,808.68134,798.20514,771.2088,878.7912,-0.21893310546875,-0.0023193359375,0.99871826171875,6.05621337890625,-2.10845947265625,6.6693115234375,1,1.0,1.0,1.0,1.0,55.00
2022-11-23 20:15:00.294,0.58425784,0.6984803,0.5144556,0.5857905,0.80516326,0.3307867,0.41538954,0.99531764,1.1246411,0.6239153,0.47548443,1.0063605,0.39227265,-0.23903745,0.007844456,0.38460338,-0.004108499,-0.4454676,-0.46673062,-0.06497459,777.25275,807.8755,801.4286,795.78754,799.41394,-0.21893310546875,-0.0023193359375,0.99871826171875,6.05621337890625,-2.10845947265625,6.6693115234375,1,1.0,1.0,1.0,1.0,55.00
2022-11-23 20:15:00.295,0.58425784,0.6984803,0.5144556,0.5857905,0.80516326,0.3307867,0.41538954,0.99531764,1.1246411,0.6239153,0.47548443,1.0063605,0.39227265,-0.23903745,0.007844456,0.38460338,-0.004108499,-0.4454676,-0.46673062,-0.06497459,823.9927,809.0842,795.78754,823.1868,797.3993,-0.21893310546875,-0.0023193359375,0.99871826171875,6.05621337890625,-2.10845947265625,6.6693115234375,1,1.0,1.0,1.0,1.0,55.00
2022-11-23 20:15:00.295,0.58425784,0.6984803,0.5144556,0.5857905,0.80516326,0.3307867,0.41538954,0.99531764,1.1246411,0.6239153,0.47548443,1.0063605,0.39227265,-0.23903745,0.007844456,0.38460338,-0.004108499,-0.4454676,-0.46673062,-0.06497459,815.5311,811.50183,792.5641,801.4286,802.6374,-0.21893310546875,-0.0023193359375,0.99871826171875,6.05621337890625,-2.10845947265625,6.6693115234375,1,1.0,1.0,1.0,1.0,55.00
2022-11-23 20:15:00.295,0.58425784,0.6984803,0.5144556,0.5857905,0.80516326,0.3307867,0.41538954,0.99531764,1.1246411,0.6239153,0.47548443,1.0063605,0.39227265,-0.23903745,0.007844456,0.38460338,-0.004108499,-0.4454676,-0.46673062,-0.06497459,767.98535,814.7253,796.99634,772.01465,665.2381,-0.21893310546875,-0.0023193359375,0.99871826171875,6.05621337890625,-2.10845947265625,6.6693115234375,1,1.0,1.0,1.0,1.0,55.00
2022-11-23 20:15:00.348,0.58425784,0.6984803,0.5144556,0.5857905,0.80516326,0.3307867,0.41538954,0.99531764,1.1246411,0.6239153,0.47548443,1.0063605,0.39227265,-0.23903745,0.007844456,0.38460338,-0.004108499,-0.4454676,-0.46673062,-0.06497459,779.2674,813.1135,802.23444,793.7729,692.23444,-0.23468017578125,0.007080078125,1.00787353515625,6.168365478515625,-0.306549072265625,5.525360107421875,1,1.0,1.0,1.0,1.0,55.00
2022-11-23 20:15:00.349,0.58425784,0.6984803,0.5144556,0.5857905,0.80516326,0.3307867,0.41538954,0.99531764,1.1246411,0.6239153,0.47548443,1.0063605,0.39227265,-0.23903745,0.007844456,0.38460338,-0.004108499,-0.4454676,-0.46673062,-0.06497459,838.9011,810.293,803.0403,831.6484,820.7692,-0.23468017578125,0.007080078125,1.00787353515625,6.168365478515625,-0.306549072265625,5.525360107421875,1,1.0,1.0,1.0,1.0,55.00
2022-11-23 20:15:00.349,0.58425784,0.6984803,0.5144556,0.5857905,0.80516326,0.3307867,0.41538954,0.99531764,1.1246411,0.6239153,0.47548443,1.0063605,0.39227265,-0.23903745,0.007844456,0.38460338,-0.004108499,-0.4454676,-0.46673062,-0.06497459,842.9304,811.50183,805.05493,832.0513,906.99634,-0.23468017578125,0.007080078125,1.00787353515625,6.168365478515625,-0.306549072265625,5.525360107421875,1,1.0,1.0,1.0,1.0,55.00
2022-11-23 20:15:00.350,0.58425784,0.6984803,0.5144556,0.5857905,0.80516326,0.3307867,0.41538954,0.99531764,1.1246411,0.6239153,0.47548443,1.0063605,0.39227265,-0.23903745,0.007844456,0.38460338,-0.004108499,-0.4454676,-0.46673062,-0.06497459,787.326,810.293,804.2491,796.99634,808.2784,-0.23468017578125,0.007080078125,1.00787353515625,6.168365478515625,-0.306549072265625,5.525360107421875,1,1.0,1.0,1.0,1.0,55.00
2022-11-23 20:15:00.350,0.58425784,0.6984803,0.5144556,0.5857905,0.80516326,0.3307867,0.41538954,0.99531764,1.1246411,0.6239153,0.47548443,1.0063605,0.39227265,-0.23903745,0.007844456,0.38460338,-0.004108499,-0.4454676,-0.46673062,-0.06497459,771.6117,812.71063,802.23444,795.78754,633.8095,-0.23468017578125,0.007080078125,1.00787353515625,6.168365478515625,-0.306549072265625,5.525360107421875,1,1.0,1.0,1.0,1.0,55.00
2022-11-23 20:15:00.351,0.58425784,0.6984803,0.5144556,0.5857905,0.80516326,0.3307867,0.41538954,0.99531764,1.1246411,0.6239153,0.47548443,1.0063605,0.39227265,-0.23903745,0.007844456,0.38460338,-0.004108499,-0.4454676,-0.46673062,-0.06497459,826.8132,815.12823,803.44324,832.4542,791.3553,-0.23468017578125,0.007080078125,1.00787353515625,6.168365478515625,-0.306549072265625,5.525360107421875,1,1.0,1.0,1.0,1.0,55.00
2022-11-23 20:15:00.351,0.58425784,0.6984803,0.5144556,0.5857905,0.80516326,0.3307867,0.41538954,0.99531764,1.1246411,0.6239153,0.47548443,1.0063605,0.39227265,-0.23903745,0.007844456,0.38460338,-0.004108499,-0.4454676,-0.46673062,-0.06497459,844.5421,810.293,802.23444,834.87177,1082.2711,-0.23468017578125,0.007080078125,1.00787353515625,6.168365478515625,-0.306549072265625,5.525360107421875,1,1.0,1.0,1.0,1.0,55.00
2022-11-23 20:15:00.352,0.58425784,0.6984803,0.5144556,0.5857905,0.80516326,0.3307867,0.41538954,0.99531764,1.1246411,0.6239153,0.47548443,1.0063605,0.39227265,-0.23903745,0.007844456,0.38460338,-0.004108499,-0.4454676,-0.46673062,-0.06497459,801.8315,810.293,801.8315,802.23444,1039.5604,-0.23468017578125,0.007080078125,1.00787353515625,6.168365478515625,-0.306549072265625,5.525360107421875,1,1.0,1.0,1.0,1.0,55.00
2022-11-23 20:15:00.352,0.58425784,0.6984803,0.5144556,0.5857905,0.80516326,0.3307867,0.41538954,0.99531764,1.1246411,0.6239153,0.47548443,1.0063605,0.39227265,-0.23903745,0.007844456,0.38460338,-0.004108499,-0.4454676,-0.46673062,-0.06497459,775.64105,811.9048,805.4579,785.31134,688.20514,-0.23468017578125,0.007080078125,1.00787353515625,6.168365478515625,-0.306549072265625,5.525360107421875,1,1.0,1.0,1.0,1.0,55.00
2022-11-23 20:15:00.353,0.58425784,0.6984803,0.5144556,0.5857905,0.80516326,0.3307867,0.41538954,0.99531764,1.1246411,0.6239153,0.47548443,1.0063605,0.39227265,-0.23903745,0.007844456,0.38460338,-0.004108499,-0.4454676,-0.46673062,-0.06497459,811.0989,806.26373,805.4579,811.50183,697.0696,-0.23468017578125,0.007080078125,1.00787353515625,6.168365478515625,-0.306549072265625,5.525360107421875,1,1.0,1.0,1.0,1.0,55.00
2022-11-23 20:15:00.353,0.58425784,0.6984803,0.5144556,0.5857905,0.80516326,0.3307867,0.41538954,0.99531764,1.1246411,0.6239153,0.47548443,1.0063605,0.39227265,-0.23903745,0.007844456,0.38460338,-0.004108499,-0.4454676,-0.46673062,-0.06497459,842.1245,804.65204,800.2198,831.2454,940.0366,-0.23468017578125,0.007080078125,1.00787353515625,6.168365478515625,-0.306549072265625,5.525360107421875,1,1.0,1.0,1.0,1.0,55.00
2022-11-23 20:15:00.353,0.58425784,0.6984803,0.5144556,0.5857905,0.80516326,0.3307867,0.41538954,0.99531764,1.1246411,0.6239153,0.47548443,1.0063605,0.39227265,-0.23903745,0.007844456,0.38460338,-0.004108499,-0.4454676,-0.46673062,-0.06497459,806.6667,807.47253,799.81683,802.23444,854.21246,-0.23468017578125,0.007080078125,1.00787353515625,6.168365478515625,-0.306549072265625,5.525360107421875,1,1.0,1.0,1.0,1.0,55.00
2022-11-23 20:15:00.413,0.58425784,0.6984803,0.5144556,0.5857905,0.80516326,0.3307867,0.41538954,0.99531764,1.1246411,0.6239153,0.47548443,1.0063605,0.39227265,-0.23903745,0.007844456,0.38460338,-0.004108499,-0.4454676,-0.46673062,-0.06497459,765.9707,808.2784,802.23444,780.87915,659.19415,-0.23468017578125,0.007080078125,1.00787353515625,6.168365478515625,-0.306549072265625,5.525360107421875,1,1.0,1.0,1.0,1.0,55.00
2022-11-23 20:15:00.414,0.58425784,0.6984803,0.5144556,0.5857905,0.80516326,0.3307867,0.41538954,0.99531764,1.1246411,0.6239153,0.47548443,1.0063605,0.39227265,-0.23903745,0.007844456,0.38460338,-0.004108499,-0.4454676,-0.46673062,-0.06497459,794.17584,810.696,803.44324,807.0696,695.8608,-0.23468017578125,0.007080078125,1.00787353515625,6.168365478515625,-0.306549072265625,5.525360107421875,1,1.0,1.0,1.0,1.0,55.00
2022-11-23 20:15:00.414,0.58425784,0.6984803,0.5144556,0.5857905,0.80516326,0.3307867,0.41538954,0.99531764,1.1246411,0.6239153,0.47548443,1.0063605,0.39227265,-0.23903745,0.007844456,0.38460338,-0.004108499,-0.4454676,-0.46673062,-0.06497459,845.34796,811.50183,800.6227,834.87177,882.8205,-0.23468017578125,0.007080078125,1.00787353515625,6.168365478515625,-0.306549072265625,5.525360107421875,1,1.0,1.0,1.0,1.0,55.00
2022-11-23 20:15:00.414,0.58425784,0.6984803,0.5144556,0.5857905,0.80516326,0.3307867,0.41538954,0.99531764,1.1246411,0.6239153,0.47548443,1.0063605,0.39227265,-0.23903745,0.007844456,0.38460338,-0.004108499,-0.4454676,-0.46673062,-0.06497459,831.6484,810.293,797.8022,816.7399,927.5458,-0.23468017578125,0.007080078125,1.00787353515625,6.168365478515625,-0.306549072265625,5.525360107421875,1,1.0,1.0,1.0,1.0,55.00
2022-11-23 20:15:00.415,0.58425784,0.6984803,0.5144556,0.5857905,0.80516326,0.3307867,0.41538954,0.99531764,1.1246411,0.6239153,0.47548443,1.0063605,0.39227265,-0.23903745,0.007844456,0.38460338,-0.004108499,-0.4454676,-0.46673062,-0.06497459,778.0586,811.9048,800.2198,777.6557,699.0842,-0.23468017578125,0.007080078125,1.00787353515625,6.168365478515625,-0.306549072265625,5.525360107421875,1,1.0,1.0,1.0,1.0,55.00
2022-11-23 20:15:00.415,0.58425784,0.6984803,0.5144556,0.5857905,0.80516326,0.3307867,0.41538954,0.99531764,1.1246411,0.6239153,0.47548443,1.0063605,0.39227265,-0.23903745,0.007844456,0.38460338,-0.004108499,-0.4454676,-0.46673062,-0.06497459,774.0293,809.0842,803.8461,781.28204,839.707,-0.23468017578125,0.007080078125,1.00787353515625,6.168365478515625,-0.306549072265625,5.525360107421875,1,1.0,1.0,1.0,1.0,55.00
2022-11-23 20:15:00.415,0.58425784,0.6984803,0.5144556,0.5857905,0.80516326,0.3307867,0.41538954,0.99531764,1.1246411,0.6239153,0.47548443,1.0063605,0.39227265,-0.23903745,0.007844456,0.38460338,-0.004108499,-0.4454676,-0.46673062,-0.06497459,824.3956,806.6667,808.2784,821.5751,1291.7949,-0.23468017578125,0.007080078125,1.00787353515625,6.168365478515625,-0.306549072265625,5.525360107421875,1,1.0,1.0,1.0,1.0,55.00
2022-11-23 20:15:00.415,0.57294565,0.9126022,0.54075503,0.54422665,0.8383649,0.45791474,0.43980846,1.0164983,1.1246411,0.6757233,0.47523662,1.0063605,0.40343845,-0.23426299,-0.0013197693,0.37938848,-0.023249129,-0.41764888,-0.46070993,-0.06785918,837.6923,812.71063,810.696,821.978,1170.1099,-0.23468017578125,0.007080078125,1.00787353515625,6.168365478515625,-0.306549072265625,5.525360107421875,1,1.0,1.0,1.0,1.0,55.00
2022-11-23 20:15:00.416,0.57294565,0.9126022,0.54075503,0.54422665,0.8383649,0.45791474,0.43980846,1.0164983,1.1246411,0.6757233,0.47523662,1.0063605,0.40343845,-0.23426299,-0.0013197693,0.37938848,-0.023249129,-0.41764888,-0.46070993,-0.06785918,783.2967,811.50183,807.0696,786.52014,724.87177,-0.23468017578125,0.007080078125,1.00787353515625,6.168365478515625,-0.306549072265625,5.525360107421875,1,1.0,1.0,1.0,1.0,55.00
2022-11-23 20:15:00.417,0.57294565,0.9126022,0.54075503,0.54422665,0.8383649,0.45791474,0.43980846,1.0164983,1.1246411,0.6757233,0.47523662,1.0063605,0.40343845,-0.23426299,-0.0013197693,0.37938848,-0.023249129,-0.41764888,-0.46070993,-0.06785918,772.01465,808.68134,804.2491,781.28204,588.68134,-0.23468017578125,0.007080078125,1.00787353515625,6.168365478515625,-0.306549072265625,5.525360107421875,1,1.0,1.0,1.0,1.0,55.00
2022-11-23 20:15:00.417,0.57294565,0.9126022,0.54075503,0.54422665,0.8383649,0.45791474,0.43980846,1.0164983,1.1246411,0.6757233,0.47523662,1.0063605,0.40343845,-0.23426299,-0.0013197693,0.37938848,-0.023249129,-0.41764888,-0.46070993,-0.06785918,823.5897,810.696,805.4579,811.50183,728.0952,-0.23468017578125,0.007080078125,1.00787353515625,6.168365478515625,-0.306549072265625,5.525360107421875,1,1.0,1.0,1.0,1.0,55.00
2022-11-23 20:15:00.417,0.57294565,0.9126022,0.54075503,0.54422665,0.8383649,0.45791474,0.43980846,1.0164983,1.1246411,0.6757233,0.47523662,1.0063605,0.40343845,-0.23426299,-0.0013197693,0.37938848,-0.023249129,-0.41764888,-0.46070993,-0.06785918,838.49817,809.4872,807.0696,822.381,797.8022,-0.23468017578125,0.007080078125,1.00787353515625,6.168365478515625,-0.306549072265625,5.525360107421875,1,1.0,1.0,1.0,1.0,55.00
2022-11-23 20:15:00.437,0.57294565,0.9126022,0.54075503,0.54422665,0.8383649,0.45791474,0.43980846,1.0164983,1.1246411,0.6757233,0.47523662,1.0063605,0.40343845,-0.23426299,-0.0013197693,0.37938848,-0.023249129,-0.41764888,-0.46070993,-0.06785918,795.78754,810.696,807.0696,793.7729,668.86444,-0.234375,0.0035400390625,0.993408203125,4.56085205078125,-1.21124267578125,1.15142822265625,1,1.0,1.0,1.0,1.0,55.00
2022-11-23 20:15:00.438,0.57294565,0.9126022,0.54075503,0.54422665,0.8383649,0.45791474,0.43980846,1.0164983,1.1246411,0.6757233,0.47523662,1.0063605,0.40343845,-0.23426299,-0.0013197693,0.37938848,-0.023249129,-0.41764888,-0.46070993,-0.06785918,771.2088,811.0989,808.2784,776.8498,594.3223,-0.234375,0.0035400390625,0.993408203125,4.56085205078125,-1.21124267578125,1.15142822265625,1,1.0,1.0,1.0,1.0,55.00
2022-11-23 20:15:00.438,0.57294565,0.9126022,0.54075503,0.54422665,0.8383649,0.45791474,0.43980846,1.0164983,1.1246411,0.6757233,0.47523662,1.0063605,0.40343845,-0.23426299,-0.0013197693,0.37938848,-0.023249129,-0.41764888,-0.46070993,-0.06785918,803.8461,810.293,810.293,804.65204,693.8461,-0.234375,0.0035400390625,0.993408203125,4.56085205078125,-1.21124267578125,1.15142822265625,1,1.0,1.0,1.0,1.0,55.00
2022-11-23 20:15:00.438,0.57294565,0.9126022,0.54075503,0.54422665,0.8383649,0.45791474,0.43980846,1.0164983,1.1246411,0.6757233,0.47523662,1.0063605,0.40343845,-0.23426299,-0.0013197693,0.37938848,-0.023249129,-0.41764888,-0.46070993,-0.06785918,836.4835,809.0842,807.47253,824.7985,837.6923,-0.234375,0.0035400390625,0.993408203125,4.56085205078125,-1.21124267578125,1.15142822265625,1,1.0,1.0,1.0,1.0,55.00
2022-11-23 20:15:00.439,0.57294565,0.9126022,0.54075503,0.54422665,0.8383649,0.45791474,0.43980846,1.0164983,1.1246411,0.6757233,0.47523662,1.0063605,0.40343845,-0.23426299,-0.0013197693,0.37938848,-0.023249129,-0.41764888,-0.46070993,-0.06785918,805.05493,807.0696,802.23444,800.2198,801.8315,-0.234375,0.0035400390625,0.993408203125,4.56085205078125,-1.21124267578125,1.15142822265625,1,1.0,1.0,1.0,1.0,55.00
2022-11-23 20:15:00.439,0.57294565,0.9126022,0.54075503,0.54422665,0.8383649,0.45791474,0.43980846,1.0164983,1.1246411,0.6757233,0.47523662,1.0063605,0.40343845,-0.23426299,-0.0013197693,0.37938848,-0.023249129,-0.41764888,-0.46070993,-0.06785918,763.5531,808.68134,801.02563,776.04395,807.0696,-0.234375,0.0035400390625,0.993408203125,4.56085205078125,-1.21124267578125,1.15142822265625,1,1.0,1.0,1.0,1.0,55.00
2022-11-23 20:15:00.439,0.57294565,0.9126022,0.54075503,0.54422665,0.8383649,0.45791474,0.43980846,1.0164983,1.1246411,0.6757233,0.47523662,1.0063605,0.40343845,-0.23426299,-0.0013197693,0.37938848,-0.023249129,-0.41764888,-0.46070993,-0.06785918,789.7436,807.0696,802.6374,796.99634,853.00366,-0.234375,0.0035400390625,0.993408203125,4.56085205078125,-1.21124267578125,1.15142822265625,1,1.0,1.0,1.0,1.0,55.00
2022-11-23 20:15:00.439,0.57294565,0.9126022,0.54075503,0.54422665,0.8383649,0.45791474,0.43980846,1.0164983,1.1246411,0.6757233,0.47523662,1.0063605,0.40343845,-0.23426299,-0.0013197693,0.37938848,-0.023249129,-0.41764888,-0.46070993,-0.06785918,828.8278,807.47253,805.4579,823.5897,857.03296,-0.234375,0.0035400390625,0.993408203125,4.56085205078125,-1.21124267578125,1.15142822265625,1,1.0,1.0,1.0,1.0,55.00
2022-11-23 20:15:00.440,0.57294565,0.9126022,0.54075503,0.54422665,0.8383649,0.45791474,0.43980846,1.0164983,1.1246411,0.6757233,0.47523662,1.0063605,0.40343845,-0.23426299,-0.0013197693,0.37938848,-0.023249129,-0.41764888,-0.46070993,-0.06785918,814.7253,810.696,808.2784,812.3077,787.72894,-0.234375,0.0035400390625,0.993408203125,4.56085205078125,-1.21124267578125,1.15142822265625,1,1.0,1.0,1.0,1.0,55.00
2022-11-23 20:15:00.440,0.57294565,0.9126022,0.54075503,0.54422665,0.8383649,0.45791474,0.43980846,1.0164983,1.1246411,0.6757233,0.47523662,1.0063605,0.40343845,-0.23426299,-0.0013197693,0.37938848,-0.023249129,-0.41764888,-0.46070993,-0.06785918,763.1502,806.26373,807.47253,771.6117,813.91943,-0.234375,0.0035400390625,0.993408203125,4.56085205078125,-1.21124267578125,1.15142822265625,1,1.0,1.0,1.0,1.0,55.00
2022-11-23 20:15:00.440,0.57294565,0.9126022,0.54075503,0.54422665,0.8383649,0.45791474,0.43980846,1.0164983,1.1246411,0.6757233,0.47523662,1.0063605,0.40343845,-0.23426299,-0.0013197693,0.37938848,-0.023249129,-0.41764888,-0.46070993,-0.06785918,752.27106,802.23444,804.65204,768.3883,903.36993,-0.234375,0.0035400390625,0.993408203125,4.56085205078125,-1.21124267578125,1.15142822265625,1,1.0,1.0,1.0,1.0,55.00
2022-11-23 20:15:00.440,0.57294565,0.9126022,0.54075503,0.54422665,0.8383649,0.45791474,0.43980846,1.0164983,1.1246411,0.6757233,0.47523662,1.0063605,0.40343845,-0.23426299,-0.0013197693,0.37938848,-0.023249129,-0.41764888,-0.46070993,-0.06785918,814.7253,801.8315,803.0403,802.6374,856.63007,-0.234375,0.0035400390625,0.993408203125,4.56085205078125,-1.21124267578125,1.15142822265625,1,1.0,1.0,1.0,1.0,55.00
2022-11-23 20:15:00.487,0.57294565,0.9126022,0.54075503,0.54422665,0.8383649,0.45791474,0.43980846,1.0164983,1.1246411,0.6757233,0.47523662,1.0063605,0.40343845,-0.23426299,-0.0013197693,0.37938848,-0.023249129,-0.41764888,-0.46070993,-0.06785918,820.7692,801.8315,799.41394,802.6374,864.68866,-0.21923828125,0.00347900390625,0.99688720703125,4.628143310546875,-2.220611572265625,-1.016845703125,1,1.0,1.0,1.0,1.0,55.00
2022-11-23 20:15:00.488,0.57294565,0.9126022,0.54075503,0.54422665,0.8383649,0.45791474,0.43980846,1.0164983,1.1246411,0.6757233,0.47523662,1.0063605,0.40343845,-0.23426299,-0.0013197693,0.37938848,-0.023249129,-0.41764888,-0.46070993,-0.06785918,750.65936,799.41394,795.38464,772.01465,752.674,-0.21923828125,0.00347900390625,0.99688720703125,4.628143310546875,-2.220611572265625,-1.016845703125,1,1.0,1.0,1.0,1.0,55.00
2022-11-23 20:15:00.488,0.57294565,0.9126022,0.54075503,0.54422665,0.8383649,0.45791474,0.43980846,1.0164983,1.1246411,0.6757233,0.47523662,1.0063605,0.40343845,-0.23426299,-0.0013197693,0.37938848,-0.023249129,-0.41764888,-0.46070993,-0.06785918,745.42126,796.1905,793.36993,764.35895,618.0952,-0.21923828125,0.00347900390625,0.99688720703125,4.628143310546875,-2.220611572265625,-1.016845703125,1,1.0,1.0,1.0,1.0,55.00
2022-11-23 20:15:00.489,0.57294565,0.9126022,0.54075503,0.54422665,0.8383649,0.45791474,0.43980846,1.0164983,1.1246411,0.6757233,0.47523662,1.0063605,0.40343845,-0.23426299,-0.0013197693,0.37938848,-0.023249129,-0.41764888,-0.46070993,-0.06785918,798.60803,797.3993,792.96704,801.02563,668.0586,-0.21923828125,0.00347900390625,0.99688720703125,4.628143310546875,-2.220611572265625,-1.016845703125,1,1.0,1.0,1.0,1.0,55.00
2022-11-23 20:15:00.489,0.57294565,0.9126022,0.54075503,0.54422665,0.8383649,0.45791474,0.43980846,1.0164983,1.1246411,0.6757233,0.47523662,1.0063605,0.40343845,-0.23426299,-0.0013197693,0.37938848,-0.023249129,-0.41764888,-0.46070993,-0.06785918,825.2015,800.2198,795.78754,819.9634,815.5311,-0.21923828125,0.00347900390625,0.99688720703125,4.628143310546875,-2.220611572265625,-1.016845703125,1,1.0,1.0,1.0,1.0,55.00
2022-11-23 20:15:00.489,0.57294565,0.9126022,0.54075503,0.54422665,0.8383649,0.45791474,0.43980846,1.0164983,1.1246411,0.6757233,0.47523662,1.0063605,0.40343845,-0.23426299,-0.0013197693,0.37938848,-0.023249129,-0.41764888,-0.46070993,-0.06785918,786.9231,802.23444,797.8022,786.1172,830.0366,-0.21923828125,0.00347900390625,0.99688720703125,4.628143310546875,-2.220611572265625,-1.016845703125,1,1.0,1.0,1.0,1.0,55.00
2022-11-23 20:15:00.489,0.57294565,0.9126022,0.54075503,0.54422665,0.8383649,0.45791474,0.43980846,1.0164983,1.1246411,0.6757233,0.47523662,1.0063605,0.40343845,-0.23426299,-0.0013197693,0.37938848,-0.023249129,-0.41764888,-0.46070993,-0.06785918,753.8828,801.02563,795.38464,762.3443,702.71063,-0.21923828125,0.00347900390625,0.99688720703125,4.628143310546875,-2.220611572265625,-1.016845703125,1,1.0,1.0,1.0,1.0,55.00
2022-11-23 20:15:00.490,0.57294565,0.9126022,0.54075503,0.54422665,0.8383649,0.45791474,0.43980846,1.0164983,1.1246411,0.6757233,0.47523662,1.0063605,0.40343845,-0.23426299,-0.0013197693,0.37938848,-0.023249129,-0.41764888,-0.46070993,-0.06785918,787.326,800.2198,799.011,793.36993,696.6667,-0.21923828125,0.00347900390625,0.99688720703125,4.628143310546875,-2.220611572265625,-1.016845703125,1,1.0,1.0,1.0,1.0,55.00
2022-11-23 20:15:00.490,0.57294565,0.9126022,0.54075503,0.54422665,0.8383649,0.45791474,0.43980846,1.0164983,1.1246411,0.6757233,0.47523662,1.0063605,0.40343845,-0.23426299,-0.0013197693,0.37938848,-0.023249129,-0.41764888,-0.46070993,-0.06785918,831.2454,797.8022,803.0403,834.87177,892.8938,-0.21923828125,0.00347900390625,0.99688720703125,4.628143310546875,-2.220611572265625,-1.016845703125,1,1.0,1.0,1.0,1.0,55.00
2022-11-23 20:15:00.490,0.54958576,0.94231397,0.5692232,0.45785946,0.8751015,0.48293748,0.46561262,1.0388788,1.1246411,0.67547107,0.47523662,1.0063605,0.40489045,-0.23139356,-0.007169667,0.3754228,-0.04876664,-0.41226357,-0.44778195,-0.06831584,808.68134,800.2198,796.99634,816.7399,1153.1868,-0.21923828125,0.00347900390625,0.99688720703125,4.628143310546875,-2.220611572265625,-1.016845703125,1,1.0,1.0,1.0,1.0,55.00
2022-11-23 20:15:00.491,0.54958576,0.94231397,0.5692232,0.45785946,0.8751015,0.48293748,0.46561262,1.0388788,1.1246411,0.67547107,0.47523662,1.0063605,0.40489045,-0.23139356,-0.007169667,0.3754228,-0.04876664,-0.41226357,-0.44778195,-0.06831584,758.315,804.65204,795.38464,778.46155,876.77655,-0.21923828125,0.00347900390625,0.99688720703125,4.628143310546875,-2.220611572265625,-1.016845703125,1,1.0,1.0,1.0,1.0,55.00
2022-11-23 20:15:00.492,0.54958576,0.94231397,0.5692232,0.45785946,0.8751015,0.48293748,0.46561262,1.0388788,1.1246411,0.67547107,0.47523662,1.0063605,0.40489045,-0.23139356,-0.007169667,0.3754228,-0.04876664,-0.41226357,-0.44778195,-0.06831584,777.6557,804.2491,799.81683,794.17584,665.2381,-0.21923828125,0.00347900390625,0.99688720703125,4.628143310546875,-2.220611572265625,-1.016845703125,1,1.0,1.0,1.0,1.0,55.00
2022-11-23 20:15:00.542,0.54958576,0.94231397,0.5692232,0.45785946,0.8751015,0.48293748,0.46561262,1.0388788,1.1246411,0.67547107,0.47523662,1.0063605,0.40489045,-0.23139356,-0.007169667,0.3754228,-0.04876664,-0.41226357,-0.44778195,-0.06831584,838.49817,805.05493,800.2198,822.7839,868.71796,-0.20770263671875,0.0064697265625,0.999755859375,3.701019287109375,-2.893524169921875,-0.351409912109375,1,1.0,1.0,1.0,1.0,55.00
2022-11-23 20:15:00.542,0.54958576,0.94231397,0.5692232,0.45785946,0.8751015,0.48293748,0.46561262,1.0388788,1.1246411,0.67547107,0.47523662,1.0063605,0.40489045,-0.23139356,-0.007169667,0.3754228,-0.04876664,-0.41226357,-0.44778195,-0.06831584,834.87177,804.2491,797.8022,810.696,860.2564,-0.20770263671875,0.0064697265625,0.999755859375,3.701019287109375,-2.893524169921875,-0.351409912109375,1,1.0,1.0,1.0,1.0,55.00
2022-11-23 20:15:00.543,0.54958576,0.94231397,0.5692232,0.45785946,0.8751015,0.48293748,0.46561262,1.0388788,1.1246411,0.67547107,0.47523662,1.0063605,0.40489045,-0.23139356,-0.007169667,0.3754228,-0.04876664,-0.41226357,-0.44778195,-0.06831584,778.46155,799.41394,799.41394,782.49084,701.50183,-0.20770263671875,0.0064697265625,0.999755859375,3.701019287109375,-2.893524169921875,-0.351409912109375,1,1.0,1.0,1.0,1.0,55.00
2022-11-23 20:15:00.543,0.54958576,0.94231397,0.5692232,0.45785946,0.8751015,0.48293748,0.46561262,1.0388788,1.1246411,0.67547107,0.47523662,1.0063605,0.40489045,-0.23139356,-0.007169667,0.3754228,-0.04876664,-0.41226357,-0.44778195,-0.06831584,772.01465,803.0403,805.8608,791.3553,672.8938,-0.20770263671875,0.0064697265625,0.999755859375,3.701019287109375,-2.893524169921875,-0.351409912109375,1,1.0,1.0,1.0,1.0,55.00
2022-11-23 20:15:00.543,0.54958576,0.94231397,0.5692232,0.45785946,0.8751015,0.48293748,0.46561262,1.0388788,1.1246411,0.67547107,0.47523662,1.0063605,0.40489045,-0.23139356,-0.007169667,0.3754228,-0.04876664,-0.41226357,-0.44778195,-0.06831584,833.663,808.68134,807.47253,824.3956,865.09155,-0.20770263671875,0.0064697265625,0.999755859375,3.701019287109375,-2.893524169921875,-0.351409912109375,1,1.0,1.0,1.0,1.0,55.00
2022-11-23 20:15:00.543,0.54958576,0.94231397,0.5692232,0.45785946,0.8751015,0.48293748,0.46561262,1.0388788,1.1246411,0.67547107,0.47523662,1.0063605,0.40489045,-0.23139356,-0.007169667,0.3754228,-0.04876664,-0.41226357,-0.44778195,-0.06831584,851.39197,807.8755,806.6667,820.3663,985.16486,-0.20770263671875,0.0064697265625,0.999755859375,3.701019287109375,-2.893524169921875,-0.351409912109375,1,1.0,1.0,1.0,1.0,55.00
2022-11-23 20:15:00.544,0.54958576,0.94231397,0.5692232,0.45785946,0.8751015,0.48293748,0.46561262,1.0388788,1.1246411,0.67547107,0.47523662,1.0063605,0.40489045,-0.23139356,-0.007169667,0.3754228,-0.04876664,-0.41226357,-0.44778195,-0.06831584,786.1172,806.26373,807.0696,789.34064,790.54944,-0.20770263671875,0.0064697265625,0.999755859375,3.701019287109375,-2.893524169921875,-0.351409912109375,1,1.0,1.0,1.0,1.0,55.00
2022-11-23 20:15:00.544,0.54958576,0.94231397,0.5692232,0.45785946,0.8751015,0.48293748,0.46561262,1.0388788,1.1246411,0.67547107,0.47523662,1.0063605,0.40489045,-0.23139356,-0.007169667,0.3754228,-0.04876664,-0.41226357,-0.44778195,-0.06831584,757.9121,808.2784,803.0403,775.64105,673.2967,-0.20770263671875,0.0064697265625,0.999755859375,3.701019287109375,-2.893524169921875,-0.351409912109375,1,1.0,1.0,1.0,1.0,55.00
2022-11-23 20:15:00.544,0.54958576,0.94231397,0.5692232,0.45785946,0.8751015,0.48293748,0.46561262,1.0388788,1.1246411,0.67547107,0.47523662,1.0063605,0.40489045,-0.23139356,-0.007169667,0.3754228,-0.04876664,-0.41226357,-0.44778195,-0.06831584,816.337,811.9048,803.8461,813.5165,913.0403,-0.20770263671875,0.0064697265625,0.999755859375,3.701019287109375,-2.893524169921875,-0.351409912109375,1,1.0,1.0,1.0,1.0,55.00
2022-11-23 20:15:00.544,0.54958576,0.94231397,0.5692232,0.45785946,0.8751015,0.48293748,0.46561262,1.0388788,1.1246411,0.67547107,0.47523662,1.0063605,0.40489045,-0.23139356,-0.007169667,0.3754228,-0.04876664,-0.41226357,-0.44778195,-0.06831584,847.76556,811.0989,805.4579,838.0952,1136.2638,-0.20770263671875,0.0064697265625,0.999755859375,3.701019287109375,-2.893524169921875,-0.351409912109375,1,1.0,1.0,1.0,1.0,55.00
2022-11-23 20:15:00.545,0.54958576,0.94231397,0.5692232,0.45785946,0.8751015,0.48293748,0.46561262,1.0388788,1.1246411,0.67547107,0.47523662,1.0063605,0.40489045,-0.23139356,-0.007169667,0.3754228,-0.04876664,-0.41226357,-0.44778195,-0.06831584,811.50183,809.89014,805.05493,800.6227,815.12823,-0.20770263671875,0.0064697265625,0.999755859375,3.701019287109375,-2.893524169921875,-0.351409912109375,1,1.0,1.0,1.0,1.0,55.00
2022-11-23 20:15:00.545,0.54958576,0.94231397,0.5692232,0.45785946,0.8751015,0.48293748,0.46561262,1.0388788,1.1246411,0.67547107,0.47523662,1.0063605,0.40489045,-0.23139356,-0.007169667,0.3754228,-0.04876664,-0.41226357,-0.44778195,-0.06831584,770.40295,810.696,804.2491,775.2381,567.326,-0.20770263671875,0.0064697265625,0.999755859375,3.701019287109375,-2.893524169921875,-0.351409912109375,1,1.0,1.0,1.0,1.0,55.00
2022-11-23 20:15:00.570,0.54958576,0.94231397,0.5692232,0.45785946,0.8751015,0.48293748,0.46561262,1.0388788,1.1246411,0.67547107,0.47523662,1.0063605,0.40489045,-0.23139356,-0.007169667,0.3754228,-0.04876664,-0.41226357,-0.44778195,-0.06831584,794.17584,811.0989,806.6667,804.65204,727.6923,-0.2115478515625,0.0020751953125,0.99658203125,3.45428466796875,-2.370147705078125,0.814971923828125,1,1.0,1.0,1.0,1.0,55.00
2022-11-23 20:15:00.570,0.54958576,0.94231397,0.5692232,0.45785946,0.8751015,0.48293748,0.46561262,1.0388788,1.1246411,0.67547107,0.47523662,1.0063605,0.40489045,-0.23139356,-0.007169667,0.3754228,-0.04876664,-0.41226357,-0.44778195,-0.06831584,843.3333,813.1135,811.9048,831.6484,846.1539,-0.2115478515625,0.0020751953125,0.99658203125,3.45428466796875,-2.370147705078125,0.814971923828125,1,1.0,1.0,1.0,1.0,55.00
2022-11-23 20:15:00.571,0.54958576,0.94231397,0.5692232,0.45785946,0.8751015,0.48293748,0.46561262,1.0388788,1.1246411,0.67547107,0.47523662,1.0063605,0.40489045,-0.23139356,-0.007169667,0.3754228,-0.04876664,-0.41226357,-0.44778195,-0.06831584,823.1868,814.7253,812.71063,812.71063,770.80585,-0.2115478515625,0.0020751953125,0.99658203125,3.45428466796875,-2.370147705078125,0.814971923828125,1,1.0,1.0,1.0,1.0,55.00
2022-11-23 20:15:00.571,0.54958576,0.94231397,0.5692232,0.45785946,0.8751015,0.48293748,0.46561262,1.0388788,1.1246411,0.67547107,0.47523662,1.0063605,0.40489045,-0.23139356,-0.007169667,0.3754228,-0.04876664,-0.41226357,-0.44778195,-0.06831584,772.8205,810.293,809.0842,779.67035,593.1135,-0.2115478515625,0.0020751953125,0.99658203125,3.45428466796875,-2.370147705078125,0.814971923828125,1,1.0,1.0,1.0,1.0,55.00
2022-11-23 20:15:00.572,0.54958576,0.94231397,0.5692232,0.45785946,0.8751015,0.48293748,0.46561262,1.0388788,1.1246411,0.67547107,0.47523662,1.0063605,0.40489045,-0.23139356,-0.007169667,0.3754228,-0.04876664,-0.41226357,-0.44778195,-0.06831584,780.4762,803.44324,809.0842,784.5055,594.3223,-0.2115478515625,0.0020751953125,0.99658203125,3.45428466796875,-2.370147705078125,0.814971923828125,1,1.0,1.0,1.0,1.0,55.00
2022-11-23 20:15:00.572,0.54958576,0.94231397,0.5692232,0.45785946,0.8751015,0.48293748,0.46561262,1.0388788,1.1246411,0.67547107,0.47523662,1.0063605,0.40489045,-0.23139356,-0.007169667,0.3754228,-0.04876664,-0.41226357,-0.44778195,-0.06831584,832.4542,804.65204,810.293,819.5604,803.44324,-0.2115478515625,0.0020751953125,0.99658203125,3.45428466796875,-2.370147705078125,0.814971923828125,1,1.0,1.0,1.0,1.0,55.00
2022-11-23 20:15:00.572,0.54958576,0.94231397,0.5692232,0.45785946,0.8751015,0.48293748,0.46561262,1.0388788,1.1246411,0.67547107,0.47523662,1.0063605,0.40489045,-0.23139356,-0.007169667,0.3754228,-0.04876664,-0.41226357,-0.44778195,-0.06831584,835.6777,807.0696,809.4872,815.5311,846.55676,-0.2115478515625,0.0020751953125,0.99658203125,3.45428466796875,-2.370147705078125,0.814971923828125,1,1.0,1.0,1.0,1.0,55.00
2022-11-23 20:15:00.572,0.54958576,0.94231397,0.5692232,0.45785946,0.8751015,0.48293748,0.46561262,1.0388788,1.1246411,0.67547107,0.47523662,1.0063605,0.40489045,-0.23139356,-0.007169667,0.3754228,-0.04876664,-0.41226357,-0.44778195,-0.06831584,784.5055,809.89014,812.3077,784.90845,715.2015,-0.2115478515625,0.0020751953125,0.99658203125,3.45428466796875,-2.370147705078125,0.814971923828125,1,1.0,1.0,1.0,1.0,55.00
2022-11-23 20:15:00.573,0.54958576,0.94231397,0.5692232,0.45785946,0.8751015,0.48293748,0.46561262,1.0388788,1.1246411,0.67547107,0.47523662,1.0063605,0.40489045,-0.23139356,-0.007169667,0.3754228,-0.04876664,-0.41226357,-0.44778195,-0.06831584,774.43225,810.696,809.4872,794.17584,862.27106,-0.2115478515625,0.0020751953125,0.99658203125,3.45428466796875,-2.370147705078125,0.814971923828125,1,1.0,1.0,1.0,1.0,55.00
2022-11-23 20:15:00.573,0.54958576,0.94231397,0.5692232,0.45785946,0.8751015,0.48293748,0.46561262,1.0388788,1.1246411,0.67547107,0.47523662,1.0063605,0.40489045,-0.23139356,-0.007169667,0.3754228,-0.04876664,-0.41226357,-0.44778195,-0.06831584,821.1722,809.0842,807.47253,819.9634,888.46155,-0.2115478515625,0.0020751953125,0.99658203125,3.45428466796875,-2.370147705078125,0.814971923828125,1,1.0,1.0,1.0,1.0,55.00
2022-11-23 20:15:00.573,0.54958576,0.94231397,0.5692232,0.45785946,0.8751015,0.48293748,0.46561262,1.0388788,1.1246411,0.67547107,0.47523662,1.0063605,0.40489045,-0.23139356,-0.007169667,0.3754228,-0.04876664,-0.41226357,-0.44778195,-0.06831584,836.4835,807.47253,810.696,821.978,875.9707,-0.2115478515625,0.0020751953125,0.99658203125,3.45428466796875,-2.370147705078125,0.814971923828125,1,1.0,1.0,1.0,1.0,55.00
2022-11-23 20:15:00.574,0.5229032,0.9742937,0.600236,0.33947623,0.9176532,0.5113091,0.493934,1.0670576,1.1246411,0.67547107,0.47523662,1.0063605,0.3941299,-0.22519922,-0.014748476,0.37377325,-0.06718783,-0.40437824,-0.43205118,-0.066766635,796.5934,808.68134,810.696,794.17584,811.9048,-0.2115478515625,0.0020751953125,0.99658203125,3.45428466796875,-2.370147705078125,0.814971923828125,1,1.0,1.0,1.0,1.0,55.00
2022-11-23 20:15:00.624,0.5229032,0.9742937,0.600236,0.33947623,0.9176532,0.5113091,0.493934,1.0670576,1.1246411,0.67547107,0.47523662,1.0063605,0.3941299,-0.22519922,-0.014748476,0.37377325,-0.06718783,-0.40437824,-0.43205118,-0.066766635,770.80585,808.68134,805.05493,775.2381,711.1722,-0.2115478515625,0.0020751953125,0.99658203125,3.45428466796875,-2.370147705078125,0.814971923828125,1,1.0,1.0,1.0,1.0,55.00
2022-11-23 20:15:00.624,0.5229032,0.9742937,0.600236,0.33947623,0.9176532,0.5113091,0.493934,1.0670576,1.1246411,0.67547107,0.47523662,1.0063605,0.3941299,-0.22519922,-0.014748476,0.37377325,-0.06718783,-0.40437824,-0.43205118,-0.066766635,807.0696,807.0696,804.2491,806.26373,794.9817,-0.2115478515625,0.0020751953125,0.99658203125,3.45428466796875,-2.370147705078125,0.814971923828125,1,1.0,1.0,1.0,1.0,55.00
2022-11-23 20:15:00.625,0.5229032,0.9742937,0.600236,0.33947623,0.9176532,0.5113091,0.493934,1.0670576,1.1246411,0.67547107,0.47523662,1.0063605,0.3941299,-0.22519922,-0.014748476,0.37377325,-0.06718783,-0.40437824,-0.43205118,-0.066766635,840.5128,807.47253,806.26373,831.6484,883.6264,-0.2115478515625,0.0020751953125,0.99658203125,3.45428466796875,-2.370147705078125,0.814971923828125,1,1.0,1.0,1.0,1.0,55.00
2022-11-23 20:15:00.625,0.5229032,0.9742937,0.600236,0.33947623,0.9176532,0.5113091,0.493934,1.0670576,1.1246411,0.67547107,0.47523662,1.0063605,0.3941299,-0.22519922,-0.014748476,0.37377325,-0.06718783,-0.40437824,-0.43205118,-0.066766635,806.26373,803.8461,806.26373,808.2784,912.23444,-0.2115478515625,0.0020751953125,0.99658203125,3.45428466796875,-2.370147705078125,0.814971923828125,1,1.0,1.0,1.0,1.0,55.00
2022-11-23 20:15:00.625,0.5229032,0.9742937,0.600236,0.33947623,0.9176532,0.5113091,0.493934,1.0670576,1.1246411,0.67547107,0.47523662,1.0063605,0.3941299,-0.22519922,-0.014748476,0.37377325,-0.06718783,-0.40437824,-0.43205118,-0.066766635,756.30035,801.02563,806.6667,780.87915,784.5055,-0.2115478515625,0.0020751953125,0.99658203125,3.45428466796875,-2.370147705078125,0.814971923828125,1,1.0,1.0,1.0,1.0,55.00
2022-11-23 20:15:00.625,0.5229032,0.9742937,0.600236,0.33947623,0.9176532,0.5113091,0.493934,1.0670576,1.1246411,0.67547107,0.47523662,1.0063605,0.3941299,-0.22519922,-0.014748476,0.37377325,-0.06718783,-0.40437824,-0.43205118,-0.066766635,777.25275,799.81683,806.26373,793.7729,773.22345,-0.2115478515625,0.0020751953125,0.99658203125,3.45428466796875,-2.370147705078125,0.814971923828125,1,1.0,1.0,1.0,1.0,55.00
2022-11-23 20:15:00.626,0.5229032,0.9742937,0.600236,0.33947623,0.9176532,0.5113091,0.493934,1.0670576,1.1246411,0.67547107,0.47523662,1.0063605,0.3941299,-0.22519922,-0.014748476,0.37377325,-0.06718783,-0.40437824,-0.43205118,-0.066766635,832.8571,802.23444,807.0696,822.381,946.4835,-0.2115478515625,0.0020751953125,0.99658203125,3.45428466796875,-2.370147705078125,0.814971923828125,1,1.0,1.0,1.0,1.0,55.00
2022-11-23 20:15:00.626,0.5229032,0.9742937,0.600236,0.33947623,0.9176532,0.5113091,0.493934,1.0670576,1.1246411,0.67547107,0.47523662,1.0063605,0.3941299,-0.22519922,-0.014748476,0.37377325,-0.06718783,-0.40437824,-0.43205118,-0.066766635,815.12823,803.44324,806.26373,808.68134,1046.8132,-0.2115478515625,0.0020751953125,0.99658203125,3.45428466796875,-2.370147705078125,0.814971923828125,1,1.0,1.0,1.0,1.0,55.00
2022-11-23 20:15:00.626,0.5229032,0.9742937,0.600236,0.33947623,0.9176532,0.5113091,0.493934,1.0670576,1.1246411,0.67547107,0.47523662,1.0063605,0.3941299,-0.22519922,-0.014748476,0.37377325,-0.06718783,-0.40437824,-0.43205118,-0.066766635,757.9121,806.26373,807.47253,775.2381,885.64105,-0.2115478515625,0.0020751953125,0.99658203125,3.45428466796875,-2.370147705078125,0.814971923828125,1,1.0,1.0,1.0,1.0,55.00
2022-11-23 20:15:00.626,0.5229032,0.9742937,0.600236,0.33947623,0.9176532,0.5113091,0.493934,1.0670576,1.1246411,0.67547107,0.47523662,1.0063605,0.3941299,-0.22519922,-0.014748476,0.37377325,-0.06718783,-0.40437824,-0.43205118,-0.066766635,761.53845,808.68134,808.2784,783.2967,683.7729,-0.2115478515625,0.0020751953125,0.99658203125,3.45428466796875,-2.370147705078125,0.814971923828125,1,1.0,1.0,1.0,1.0,55.00
2022-11-23 20:15:00.627,0.5229032,0.9742937,0.600236,0.33947623,0.9176532,0.5113091,0.493934,1.0670576,1.1246411,0.67547107,0.47523662,1.0063605,0.3941299,-0.22519922,-0.014748476,0.37377325,-0.06718783,-0.40437824,-0.43205118,-0.066766635,812.71063,800.2198,802.23444,815.12823,833.663,-0.2115478515625,0.0020751953125,0.99658203125,3.45428466796875,-2.370147705078125,0.814971923828125,1,1.0,1.0,1.0,1.0,55.00
2022-11-23 20:15:00.627,0.5229032,0.9742937,0.600236,0.33947623,0.9176532,0.5113091,0.493934,1.0670576,1.1246411,0.67547107,0.47523662,1.0063605,0.3941299,-0.22519922,-0.014748476,0.37377325,-0.06718783,-0.40437824,-0.43205118,-0.066766635,817.1429,793.7729,803.44324,815.5311,941.2454,-0.2115478515625,0.0020751953125,0.99658203125,3.45428466796875,-2.370147705078125,0.814971923828125,1,1.0,1.0,1.0,1.0,55.00
2022-11-23 20:15:00.674,0.5229032,0.9742937,0.600236,0.33947623,0.9176532,0.5113091,0.493934,1.0670576,1.1246411,0.67547107,0.47523662,1.0063605,0.3941299,-0.22519922,-0.014748476,0.37377325,-0.06718783,-0.40437824,-0.43205118,-0.066766635,754.68866,796.5934,808.2784,786.9231,751.06226,-0.2135009765625,9.765625E-4,0.9957275390625,3.775787353515625,-1.742095947265625,0.052337646484375,1,1.0,1.0,1.0,1.0,55.00
2022-11-23 20:15:00.674,0.5229032,0.9742937,0.600236,0.33947623,0.9176532,0.5113091,0.493934,1.0670576,1.1246411,0.67547107,0.47523662,1.0063605,0.3941299,-0.22519922,-0.014748476,0.37377325,-0.06718783,-0.40437824,-0.43205118,-0.066766635,759.12085,803.8461,803.0403,784.90845,674.10254,-0.2135009765625,9.765625E-4,0.9957275390625,3.775787353515625,-1.742095947265625,0.052337646484375,1,1.0,1.0,1.0,1.0,55.00
2022-11-23 20:15:00.675,0.5229032,0.9742937,0.600236,0.33947623,0.9176532,0.5113091,0.493934,1.0670576,1.1246411,0.67547107,0.47523662,1.0063605,0.3941299,-0.22519922,-0.014748476,0.37377325,-0.06718783,-0.40437824,-0.43205118,-0.066766635,823.1868,809.0842,802.6374,818.7546,808.68134,-0.2135009765625,9.765625E-4,0.9957275390625,3.775787353515625,-1.742095947265625,0.052337646484375,1,1.0,1.0,1.0,1.0,55.00
2022-11-23 20:15:00.675,0.5229032,0.9742937,0.600236,0.33947623,0.9176532,0.5113091,0.493934,1.0670576,1.1246411,0.67547107,0.47523662,1.0063605,0.3941299,-0.22519922,-0.014748476,0.37377325,-0.06718783,-0.40437824,-0.43205118,-0.066766635,838.0952,809.0842,805.05493,824.3956,903.7729,-0.2135009765625,9.765625E-4,0.9957275390625,3.775787353515625,-1.742095947265625,0.052337646484375,1,1.0,1.0,1.0,1.0,55.00
2022-11-23 20:15:00.675,0.5229032,0.9742937,0.600236,0.33947623,0.9176532,0.5113091,0.493934,1.0670576,1.1246411,0.67547107,0.47523662,1.0063605,0.3941299,-0.22519922,-0.014748476,0.37377325,-0.06718783,-0.40437824,-0.43205118,-0.066766635,795.78754,806.6667,805.4579,793.7729,785.31134,-0.2135009765625,9.765625E-4,0.9957275390625,3.775787353515625,-1.742095947265625,0.052337646484375,1,1.0,1.0,1.0,1.0,55.00
2022-11-23 20:15:00.675,0.5229032,0.9742937,0.600236,0.33947623,0.9176532,0.5113091,0.493934,1.0670576,1.1246411,0.67547107,0.47523662,1.0063605,0.3941299,-0.22519922,-0.014748476,0.37377325,-0.06718783,-0.40437824,-0.43205118,-0.066766635,764.7619,806.26373,803.0403,778.0586,643.47986,-0.2135009765625,9.765625E-4,0.9957275390625,3.775787353515625,-1.742095947265625,0.052337646484375,1,1.0,1.0,1.0,1.0,55.00
2022-11-23 20:15:00.676,0.5229032,0.9742937,0.600236,0.33947623,0.9176532,0.5113091,0.493934,1.0670576,1.1246411,0.67547107,0.47523662,1.0063605,0.3941299,-0.22519922,-0.014748476,0.37377325,-0.06718783,-0.40437824,-0.43205118,-0.066766635,801.02563,809.89014,800.6227,805.8608,769.59705,-0.2135009765625,9.765625E-4,0.9957275390625,3.775787353515625,-1.742095947265625,0.052337646484375,1,1.0,1.0,1.0,1.0,55.00
2022-11-23 20:15:00.676,0.5229032,0.9742937,0.600236,0.33947623,0.9176532,0.5113091,0.493934,1.0670576,1.1246411,0.67547107,0.47523662,1.0063605,0.3941299,-0.22519922,-0.014748476,0.37377325,-0.06718783,-0.40437824,-0.43205118,-0.066766635,848.5714,815.12823,802.23444,836.4835,1194.2858,-0.2135009765625,9.765625E-4,0.9957275390625,3.775787353515625,-1.742095947265625,0.052337646484375,1,1.0,1.0,1.0,1.0,55.00
2022-11-23 20:15:00.676,0.5229032,0.9742937,0.600236,0.33947623,0.9176532,0.5113091,0.493934,1.0670576,1.1246411,0.67547107,0.47523662,1.0063605,0.3941299,-0.22519922,-0.014748476,0.37377325,-0.06718783,-0.40437824,-0.43205118,-0.066766635,827.2161,816.7399,802.6374,808.68134,1085.8975,-0.2135009765625,9.765625E-4,0.9957275390625,3.775787353515625,-1.742095947265625,0.052337646484375,1,1.0,1.0,1.0,1.0,55.00
