TimeStamp,Delta_TP9,Delta_AF7,Delta_AF8,Delta_TP10,Theta_TP9,Theta_AF7,Theta_AF8,Theta_TP10,Alpha_TP9,Alpha_AF7,Alpha_AF8,Alpha_TP10,Beta_TP9,Beta_AF7,Beta_AF8,Beta_TP10,Gamma_TP9,Gamma_AF7,Gamma_AF8,Gamma_TP10,RAW_TP9,RAW_AF7,RAW_AF8,RAW_TP10,AUX_RIGHT,Accelerometer_X,Accelerometer_Y,Accelerometer_Z,Gyro_X,Gyro_Y,Gyro_Z,HeadBandOn,HSI_TP9,HSI_AF7,HSI_AF8,HSI_TP10,Battery,Elements
2022-11-23 20:16:22.674,0.37952694,-0.022157772,0.0071880342,0.38270432,0.5756154,-0.07098688,0.17600356,0.45139316,0.5136791,-0.030403154,0.11928545,0.6908169,0.012111097,-0.18748,-0.22730292,0.3075124,-0.24621075,-0.53090113,-0.41857582,-0.0054878364,855.0183,794.57874,811.0989,845.34796,901.3553,-0.17926025390625,-0.01837158203125,1.0120849609375,3.289794921875,-1.233673095703125,0.859832763671875,1,1.0,1.0,1.0,1.0,50.00
2022-11-23 20:16:22.675,0.37952694,-0.022157772,0.0071880342,0.38270432,0.5756154,-0.07098688,0.17600356,0.45139316,0.5136791,-0.030403154,0.11928545,0.6908169,0.012111097,-0.18748,-0.22730292,0.3075124,-0.24621075,-0.53090113,-0.41857582,-0.0054878364,813.91943,795.38464,807.0696,807.0696,817.1429,-0.17926025390625,-0.01837158203125,1.0120849609375,3.289794921875,-1.233673095703125,0.859832763671875,1,1.0,1.0,1.0,1.0,50.00
2022-11-23 20:16:22.675,0.37952694,-0.022157772,0.0071880342,0.38270432,0.5756154,-0.07098688,0.17600356,0.45139316,0.5136791,-0.030403154,0.11928545,0.6908169,0.012111097,-0.18748,-0.22730292,0.3075124,-0.24621075,-0.53090113,-0.41857582,-0.0054878364,775.64105,797.3993,808.68134,783.69965,649.5238,-0.17926025390625,-0.01837158203125,1.0120849609375,3.289794921875,-1.233673095703125,0.859832763671875,1,1.0,1.0,1.0,1.0,50.00
2022-11-23 20:16:22.676,0.37952694,-0.022157772,0.0071880342,0.38270432,0.5756154,-0.07098688,0.17600356,0.45139316,0.5136791,-0.030403154,0.11928545,0.6908169,0.012111097,-0.18748,-0.22730292,0.3075124,-0.24621075,-0.53090113,-0.41857582,-0.0054878364,808.68134,801.8315,815.12823,820.3663,735.7509,-0.17926025390625,-0.01837158203125,1.0120849609375,3.289794921875,-1.233673095703125,0.859832763671875,1,1.0,1.0,1.0,1.0,50.00
2022-11-23 20:16:22.676,0.37952694,-0.022157772,0.0071880342,0.38270432,0.5756154,-0.07098688,0.17600356,0.45139316,0.5136791,-0.030403154,0.11928545,0.6908169,0.012111097,-0.18748,-0.22730292,0.3075124,-0.24621075,-0.53090113,-0.41857582,-0.0054878364,852.6007,805.4579,815.5311,841.31866,839.304,-0.17926025390625,-0.01837158203125,1.0120849609375,3.289794921875,-1.233673095703125,0.859832763671875,1,1.0,1.0,1.0,1.0,50.00
2022-11-23 20:16:22.676,0.37952694,-0.022157772,0.0071880342,0.38270432,0.5756154,-0.07098688,0.17600356,0.45139316,0.5136791,-0.030403154,0.11928545,0.6908169,0.012111097,-0.18748,-0.22730292,0.3075124,-0.24621075,-0.53090113,-0.41857582,-0.0054878364,828.022,803.0403,808.68134,807.47253,846.1539,-0.17926025390625,-0.01837158203125,1.0120849609375,3.289794921875,-1.233673095703125,0.859832763671875,1,1.0,1.0,1.0,1.0,50.00
2022-11-23 20:16:22.676,0.37952694,-0.022157772,0.0071880342,0.38270432,0.5756154,-0.07098688,0.17600356,0.45139316,0.5136791,-0.030403154,0.11928545,0.6908169,0.012111097,-0.18748,-0.22730292,0.3075124,-0.24621075,-0.53090113,-0.41857582,-0.0054878364,782.49084,803.0403,807.8755,776.8498,896.52014,-0.17926025390625,-0.01837158203125,1.0120849609375,3.289794921875,-1.233673095703125,0.859832763671875,1,1.0,1.0,1.0,1.0,50.00
2022-11-23 20:16:22.677,0.30410105,0.0039442508,-0.008864611,0.39511806,0.5503382,-0.0781407,0.09311578,0.42886725,0.4761199,-0.08206315,0.13424207,0.6908169,0.005292605,-0.19524744,-0.22054881,0.28993833,-0.2742538,-0.52973306,-0.41714385,-0.026605314,797.8022,805.05493,813.5165,801.02563,884.0293,-0.17926025390625,-0.01837158203125,1.0120849609375,3.289794921875,-1.233673095703125,0.859832763671875,1,1.0,1.0,1.0,1.0,50.00
2022-11-23 20:16:22.678,0.30410105,0.0039442508,-0.008864611,0.39511806,0.5503382,-0.0781407,0.09311578,0.42886725,0.4761199,-0.08206315,0.13424207,0.6908169,0.005292605,-0.19524744,-0.22054881,0.28993833,-0.2742538,-0.52973306,-0.41714385,-0.026605314,843.73627,808.68134,816.7399,838.0952,947.6923,-0.17926025390625,-0.01837158203125,1.0120849609375,3.289794921875,-1.233673095703125,0.859832763671875,1,1.0,1.0,1.0,1.0,50.00
2022-11-23 20:16:22.679,0.30410105,0.0039442508,-0.008864611,0.39511806,0.5503382,-0.0781407,0.09311578,0.42886725,0.4761199,-0.08206315,0.13424207,0.6908169,0.005292605,-0.19524744,-0.22054881,0.28993833,-0.2742538,-0.52973306,-0.41714385,-0.026605314,842.52747,812.71063,816.337,820.3663,990.80585,-0.17926025390625,-0.01837158203125,1.0120849609375,3.289794921875,-1.233673095703125,0.859832763671875,1,1.0,1.0,1.0,1.0,50.00
2022-11-23 20:16:22.679,0.30410105,0.0039442508,-0.008864611,0.39511806,0.5503382,-0.0781407,0.09311578,0.42886725,0.4761199,-0.08206315,0.13424207,0.6908169,0.005292605,-0.19524744,-0.22054881,0.28993833,-0.2742538,-0.52973306,-0.41714385,-0.026605314,790.14655,810.696,812.71063,781.685,776.4469,-0.17926025390625,-0.01837158203125,1.0120849609375,3.289794921875,-1.233673095703125,0.859832763671875,1,1.0,1.0,1.0,1.0,50.00
2022-11-23 20:16:22.679,0.30410105,0.0039442508,-0.008864611,0.39511806,0.5503382,-0.0781407,0.09311578,0.42886725,0.4761199,-0.08206315,0.13424207,0.6908169,0.005292605,-0.19524744,-0.22054881,0.28993833,-0.2742538,-0.52973306,-0.41714385,-0.026605314,778.46155,810.696,812.3077,791.3553,576.1905,-0.17926025390625,-0.01837158203125,1.0120849609375,3.289794921875,-1.233673095703125,0.859832763671875,1,1.0,1.0,1.0,1.0,50.00
2022-11-23 20:16:22.702,0.30410105,0.0039442508,-0.008864611,0.39511806,0.5503382,-0.0781407,0.09311578,0.42886725,0.4761199,-0.08206315,0.13424207,0.6908169,0.005292605,-0.19524744,-0.22054881,0.28993833,-0.2742538,-0.52973306,-0.41714385,-0.026605314,832.0513,809.4872,814.7253,830.4396,687.8022,-0.17926025390625,-0.01837158203125,1.0120849609375,3.289794921875,-1.233673095703125,0.859832763671875,1,1.0,1.0,1.0,1.0,50.00
2022-11-23 20:16:22.703,0.30410105,0.0039442508,-0.008864611,0.39511806,0.5503382,-0.0781407,0.09311578,0.42886725,0.4761199,-0.08206315,0.13424207,0.6908169,0.005292605,-0.19524744,-0.22054881,0.28993833,-0.2742538,-0.52973306,-0.41714385,-0.026605314,846.1539,808.68134,811.50183,832.0513,781.685,-0.17926025390625,-0.01837158203125,1.0120849609375,3.289794921875,-1.233673095703125,0.859832763671875,1,1.0,1.0,1.0,1.0,50.00
2022-11-23 20:16:22.703,0.30410105,0.0039442508,-0.008864611,0.39511806,0.5503382,-0.0781407,0.09311578,0.42886725,0.4761199,-0.08206315,0.13424207,0.6908169,0.005292605,-0.19524744,-0.22054881,0.28993833,-0.2742538,-0.52973306,-0.41714385,-0.026605314,792.5641,808.2784,806.6667,792.96704,681.75824,-0.17926025390625,-0.01837158203125,1.0120849609375,3.289794921875,-1.233673095703125,0.859832763671875,1,1.0,1.0,1.0,1.0,50.00
2022-11-23 20:16:22.703,0.30410105,0.0039442508,-0.008864611,0.39511806,0.5503382,-0.0781407,0.09311578,0.42886725,0.4761199,-0.08206315,0.13424207,0.6908169,0.005292605,-0.19524744,-0.22054881,0.28993833,-0.2742538,-0.52973306,-0.41714385,-0.026605314,772.4176,807.0696,811.0989,788.1319,634.21246,-0.17926025390625,-0.01837158203125,1.0120849609375,3.289794921875,-1.233673095703125,0.859832763671875,1,1.0,1.0,1.0,1.0,50.00
2022-11-23 20:16:22.704,0.30410105,0.0039442508,-0.008864611,0.39511806,0.5503382,-0.0781407,0.09311578,0.42886725,0.4761199,-0.08206315,0.13424207,0.6908169,0.005292605,-0.19524744,-0.22054881,0.28993833,-0.2742538,-0.52973306,-0.41714385,-0.026605314,820.3663,809.0842,810.293,816.337,698.68134,-0.17926025390625,-0.01837158203125,1.0120849609375,3.289794921875,-1.233673095703125,0.859832763671875,1,1.0,1.0,1.0,1.0,50.00
2022-11-23 20:16:22.704,0.30410105,0.0039442508,-0.008864611,0.39511806,0.5503382,-0.0781407,0.09311578,0.42886725,0.4761199,-0.08206315,0.13424207,0.6908169,0.005292605,-0.19524744,-0.22054881,0.28993833,-0.2742538,-0.52973306,-0.41714385,-0.026605314,855.0183,805.8608,807.47253,828.8278,979.92676,-0.17926025390625,-0.01837158203125,1.0120849609375,3.289794921875,-1.233673095703125,0.859832763671875,1,1.0,1.0,1.0,1.0,50.00
2022-11-23 20:16:22.704,0.30410105,0.0039442508,-0.008864611,0.39511806,0.5503382,-0.0781407,0.09311578,0.42886725,0.4761199,-0.08206315,0.13424207,0.6908169,0.005292605,-0.19524744,-0.22054881,0.28993833,-0.2742538,-0.52973306,-0.41714385,-0.026605314,819.15753,803.0403,807.0696,810.696,1158.022,-0.17926025390625,-0.01837158203125,1.0120849609375,3.289794921875,-1.233673095703125,0.859832763671875,1,1.0,1.0,1.0,1.0,50.00
2022-11-23 20:16:22.704,0.30410105,0.0039442508,-0.008864611,0.39511806,0.5503382,-0.0781407,0.09311578,0.42886725,0.4761199,-0.08206315,0.13424207,0.6908169,0.005292605,-0.19524744,-0.22054881,0.28993833,-0.2742538,-0.52973306,-0.41714385,-0.026605314,778.0586,805.05493,805.8608,792.5641,833.663,-0.17926025390625,-0.01837158203125,1.0120849609375,3.289794921875,-1.233673095703125,0.859832763671875,1,1.0,1.0,1.0,1.0,50.00
2022-11-23 20:16:22.705,0.30410105,0.0039442508,-0.008864611,0.39511806,0.5503382,-0.0781407,0.09311578,0.42886725,0.4761199,-0.08206315,0.13424207,0.6908169,0.005292605,-0.19524744,-0.22054881,0.28993833,-0.2742538,-0.52973306,-0.41714385,-0.026605314,814.7253,806.6667,807.0696,817.5458,671.685,-0.17926025390625,-0.01837158203125,1.0120849609375,3.289794921875,-1.233673095703125,0.859832763671875,1,1.0,1.0,1.0,1.0,50.00
2022-11-23 20:16:22.705,0.30410105,0.0039442508,-0.008864611,0.39511806,0.5503382,-0.0781407,0.09311578,0.42886725,0.4761199,-0.08206315,0.13424207,0.6908169,0.005292605,-0.19524744,-0.22054881,0.28993833,-0.2742538,-0.52973306,-0.41714385,-0.026605314,857.03296,806.26373,812.3077,845.34796,843.73627,-0.17926025390625,-0.01837158203125,1.0120849609375,3.289794921875,-1.233673095703125,0.859832763671875,1,1.0,1.0,1.0,1.0,50.00
2022-11-23 20:16:22.705,0.30410105,0.0039442508,-0.008864611,0.39511806,0.5503382,-0.0781407,0.09311578,0.42886725,0.4761199,-0.08206315,0.13424207,0.6908169,0.005292605,-0.19524744,-0.22054881,0.28993833,-0.2742538,-0.52973306,-0.41714385,-0.026605314,826.8132,802.6374,812.3077,824.7985,816.337,-0.17926025390625,-0.01837158203125,1.0120849609375,3.289794921875,-1.233673095703125,0.859832763671875,1,1.0,1.0,1.0,1.0,50.00
2022-11-23 20:16:22.705,0.30410105,0.0039442508,-0.008864611,0.39511806,0.5503382,-0.0781407,0.09311578,0.42886725,0.4761199,-0.08206315,0.13424207,0.6908169,0.005292605,-0.19524744,-0.22054881,0.28993833,-0.2742538,-0.52973306,-0.41714385,-0.026605314,783.69965,801.8315,807.47253,796.1905,615.2747,-0.17926025390625,-0.01837158203125,1.0120849609375,3.289794921875,-1.233673095703125,0.859832763671875,1,1.0,1.0,1.0,1.0,50.00
2022-11-23 20:16:22.760,0.30410105,0.0039442508,-0.008864611,0.39511806,0.5503382,-0.0781407,0.09311578,0.42886725,0.4761199,-0.08206315,0.13424207,0.6908169,0.005292605,-0.19524744,-0.22054881,0.28993833,-0.2742538,-0.52973306,-0.41714385,-0.026605314,792.1612,805.05493,810.696,803.44324,603.5897,-0.1700439453125,-0.0123291015625,1.02386474609375,2.58697509765625,-1.218719482421875,0.934600830078125,1,1.0,1.0,1.0,1.0,50.00
2022-11-23 20:16:22.760,0.30410105,0.0039442508,-0.008864611,0.39511806,0.5503382,-0.0781407,0.09311578,0.42886725,0.4761199,-0.08206315,0.13424207,0.6908169,0.005292605,-0.19524744,-0.22054881,0.28993833,-0.2742538,-0.52973306,-0.41714385,-0.026605314,831.6484,802.6374,809.89014,835.2747,833.2601,-0.1700439453125,-0.0123291015625,1.02386474609375,2.58697509765625,-1.218719482421875,0.934600830078125,1,1.0,1.0,1.0,1.0,50.00
2022-11-23 20:16:22.760,0.30410105,0.0039442508,-0.008864611,0.39511806,0.5503382,-0.0781407,0.09311578,0.42886725,0.4761199,-0.08206315,0.13424207,0.6908169,0.005292605,-0.19524744,-0.22054881,0.28993833,-0.2742538,-0.52973306,-0.41714385,-0.026605314,838.49817,804.2491,809.4872,829.6337,903.36993,-0.1700439453125,-0.0123291015625,1.02386474609375,2.58697509765625,-1.218719482421875,0.934600830078125,1,1.0,1.0,1.0,1.0,50.00
2022-11-23 20:16:22.761,0.30410105,0.0039442508,-0.008864611,0.39511806,0.5503382,-0.0781407,0.09311578,0.42886725,0.4761199,-0.08206315,0.13424207,0.6908169,0.005292605,-0.19524744,-0.22054881,0.28993833,-0.2742538,-0.52973306,-0.41714385,-0.026605314,791.75824,807.8755,811.9048,795.78754,702.71063,-0.1700439453125,-0.0123291015625,1.02386474609375,2.58697509765625,-1.218719482421875,0.934600830078125,1,1.0,1.0,1.0,1.0,50.00
2022-11-23 20:16:22.761,0.30410105,0.0039442508,-0.008864611,0.39511806,0.5503382,-0.0781407,0.09311578,0.42886725,0.4761199,-0.08206315,0.13424207,0.6908169,0.005292605,-0.19524744,-0.22054881,0.28993833,-0.2742538,-0.52973306,-0.41714385,-0.026605314,766.77655,802.6374,812.71063,793.7729,621.7216,-0.1700439453125,-0.0123291015625,1.02386474609375,2.58697509765625,-1.218719482421875,0.934600830078125,1,1.0,1.0,1.0,1.0,50.00
2022-11-23 20:16:22.761,0.30410105,0.0039442508,-0.008864611,0.39511806,0.5503382,-0.0781407,0.09311578,0.42886725,0.4761199,-0.08206315,0.13424207,0.6908169,0.005292605,-0.19524744,-0.22054881,0.28993833,-0.2742538,-0.52973306,-0.41714385,-0.026605314,812.3077,797.3993,818.7546,826.4103,814.3223,-0.1700439453125,-0.0123291015625,1.02386474609375,2.58697509765625,-1.218719482421875,0.934600830078125,1,1.0,1.0,1.0,1.0,50.00
2022-11-23 20:16:22.761,0.30410105,0.0039442508,-0.008864611,0.39511806,0.5503382,-0.0781407,0.09311578,0.42886725,0.4761199,-0.08206315,0.13424207,0.6908169,0.005292605,-0.19524744,-0.22054881,0.28993833,-0.2742538,-0.52973306,-0.41714385,-0.026605314,835.2747,793.7729,815.9341,834.4689,956.1539,-0.1700439453125,-0.0123291015625,1.02386474609375,2.58697509765625,-1.218719482421875,0.934600830078125,1,1.0,1.0,1.0,1.0,50.00
2022-11-23 20:16:22.762,0.30410105,0.0039442508,-0.008864611,0.39511806,0.5503382,-0.0781407,0.09311578,0.42886725,0.4761199,-0.08206315,0.13424207,0.6908169,0.005292605,-0.19524744,-0.22054881,0.28993833,-0.2742538,-0.52973306,-0.41714385,-0.026605314,786.52014,790.14655,808.68134,804.2491,834.0659,-0.1700439453125,-0.0123291015625,1.02386474609375,2.58697509765625,-1.218719482421875,0.934600830078125,1,1.0,1.0,1.0,1.0,50.00
2022-11-23 20:16:22.762,0.30410105,0.0039442508,-0.008864611,0.39511806,0.5503382,-0.0781407,0.09311578,0.42886725,0.4761199,-0.08206315,0.13424207,0.6908169,0.005292605,-0.19524744,-0.22054881,0.28993833,-0.2742538,-0.52973306,-0.41714385,-0.026605314,749.45056,790.9524,811.0989,783.69965,647.9121,-0.1700439453125,-0.0123291015625,1.02386474609375,2.58697509765625,-1.218719482421875,0.934600830078125,1,1.0,1.0,1.0,1.0,50.00
2022-11-23 20:16:22.762,0.24047475,0.022521636,-0.0129849445,0.41845468,0.50829375,-0.08682353,0.008419507,0.41082713,0.41195896,-0.14795347,0.15619725,0.6908169,-6.2092826E-5,-0.19944797,-0.21859623,0.27121824,-0.2924469,-0.53177017,-0.42318472,-0.04362582,786.1172,789.7436,813.91943,812.71063,933.1868,-0.1700439453125,-0.0123291015625,1.02386474609375,2.58697509765625,-1.218719482421875,0.934600830078125,1,1.0,1.0,1.0,1.0,50.00
2022-11-23 20:16:22.763,0.24047475,0.022521636,-0.0129849445,0.41845468,0.50829375,-0.08682353,0.008419507,0.41082713,0.41195896,-0.14795347,0.15619725,0.6908169,-6.2092826E-5,-0.19944797,-0.21859623,0.27121824,-0.2924469,-0.53177017,-0.42318472,-0.04362582,832.8571,790.54944,817.5458,839.707,1083.0769,-0.1700439453125,-0.0123291015625,1.02386474609375,2.58697509765625,-1.218719482421875,0.934600830078125,1,1.0,1.0,1.0,1.0,50.00
2022-11-23 20:16:22.764,0.24047475,0.022521636,-0.0129849445,0.41845468,0.50829375,-0.08682353,0.008419507,0.41082713,0.41195896,-0.14795347,0.15619725,0.6908169,-6.2092826E-5,-0.19944797,-0.21859623,0.27121824,-0.2924469,-0.53177017,-0.42318472,-0.04362582,803.44324,794.17584,818.7546,807.8755,728.49817,-0.1700439453125,-0.0123291015625,1.02386474609375,2.58697509765625,-1.218719482421875,0.934600830078125,1,1.0,1.0,1.0,1.0,50.00
2022-11-23 20:16:22.808,0.24047475,0.022521636,-0.0129849445,0.41845468,0.50829375,-0.08682353,0.008419507,0.41082713,0.41195896,-0.14795347,0.15619725,0.6908169,-6.2092826E-5,-0.19944797,-0.21859623,0.27121824,-0.2924469,-0.53177017,-0.42318472,-0.04362582,753.8828,793.7729,812.71063,770.40295,612.8571,-0.18975830078125,-0.022705078125,1.0,3.835601806640625,2.19818115234375,0.052337646484375,1,1.0,1.0,1.0,1.0,50.00
2022-11-23 20:16:22.808,0.24047475,0.022521636,-0.0129849445,0.41845468,0.50829375,-0.08682353,0.008419507,0.41082713,0.41195896,-0.14795347,0.15619725,0.6908169,-6.2092826E-5,-0.19944797,-0.21859623,0.27121824,-0.2924469,-0.53177017,-0.42318472,-0.04362582,780.87915,791.3553,807.47253,785.7143,734.5421,-0.18975830078125,-0.022705078125,1.0,3.835601806640625,2.19818115234375,0.052337646484375,1,1.0,1.0,1.0,1.0,50.00
2022-11-23 20:16:22.809,0.24047475,0.022521636,-0.0129849445,0.41845468,0.50829375,-0.08682353,0.008419507,0.41082713,0.41195896,-0.14795347,0.15619725,0.6908169,-6.2092826E-5,-0.19944797,-0.21859623,0.27121824,-0.2924469,-0.53177017,-0.42318472,-0.04362582,837.6923,792.1612,811.0989,826.4103,864.68866,-0.18975830078125,-0.022705078125,1.0,3.835601806640625,2.19818115234375,0.052337646484375,1,1.0,1.0,1.0,1.0,50.00
2022-11-23 20:16:22.809,0.24047475,0.022521636,-0.0129849445,0.41845468,0.50829375,-0.08682353,0.008419507,0.41082713,0.41195896,-0.14795347,0.15619725,0.6908169,-6.2092826E-5,-0.19944797,-0.21859623,0.27121824,-0.2924469,-0.53177017,-0.42318472,-0.04362582,819.5604,796.1905,807.8755,808.2784,805.05493,-0.18975830078125,-0.022705078125,1.0,3.835601806640625,2.19818115234375,0.052337646484375,1,1.0,1.0,1.0,1.0,50.00
2022-11-23 20:16:22.809,0.24047475,0.022521636,-0.0129849445,0.41845468,0.50829375,-0.08682353,0.008419507,0.41082713,0.41195896,-0.14795347,0.15619725,0.6908169,-6.2092826E-5,-0.19944797,-0.21859623,0.27121824,-0.2924469,-0.53177017,-0.42318472,-0.04362582,769.19415,803.0403,805.8608,768.3883,720.4396,-0.18975830078125,-0.022705078125,1.0,3.835601806640625,2.19818115234375,0.052337646484375,1,1.0,1.0,1.0,1.0,50.00
2022-11-23 20:16:22.810,0.24047475,0.022521636,-0.0129849445,0.41845468,0.50829375,-0.08682353,0.008419507,0.41082713,0.41195896,-0.14795347,0.15619725,0.6908169,-6.2092826E-5,-0.19944797,-0.21859623,0.27121824,-0.2924469,-0.53177017,-0.42318472,-0.04362582,779.67035,806.26373,813.5165,781.685,723.663,-0.18975830078125,-0.022705078125,1.0,3.835601806640625,2.19818115234375,0.052337646484375,1,1.0,1.0,1.0,1.0,50.00
2022-11-23 20:16:22.810,0.24047475,0.022521636,-0.0129849445,0.41845468,0.50829375,-0.08682353,0.008419507,0.41082713,0.41195896,-0.14795347,0.15619725,0.6908169,-6.2092826E-5,-0.19944797,-0.21859623,0.27121824,-0.2924469,-0.53177017,-0.42318472,-0.04362582,825.2015,804.65204,815.5311,816.337,863.47986,-0.18975830078125,-0.022705078125,1.0,3.835601806640625,2.19818115234375,0.052337646484375,1,1.0,1.0,1.0,1.0,50.00
2022-11-23 20:16:22.811,0.24047475,0.022521636,-0.0129849445,0.41845468,0.50829375,-0.08682353,0.008419507,0.41082713,0.41195896,-0.14795347,0.15619725,0.6908169,-6.2092826E-5,-0.19944797,-0.21859623,0.27121824,-0.2924469,-0.53177017,-0.42318472,-0.04362582,826.8132,806.6667,813.1135,808.2784,852.6007,-0.18975830078125,-0.022705078125,1.0,3.835601806640625,2.19818115234375,0.052337646484375,1,1.0,1.0,1.0,1.0,50.00
2022-11-23 20:16:22.811,0.24047475,0.022521636,-0.0129849445,0.41845468,0.50829375,-0.08682353,0.008419507,0.41082713,0.41195896,-0.14795347,0.15619725,0.6908169,-6.2092826E-5,-0.19944797,-0.21859623,0.27121824,-0.2924469,-0.53177017,-0.42318472,-0.04362582,781.28204,806.6667,809.4872,779.67035,809.4872,-0.18975830078125,-0.022705078125,1.0,3.835601806640625,2.19818115234375,0.052337646484375,1,1.0,1.0,1.0,1.0,50.00
2022-11-23 20:16:22.811,0.24047475,0.022521636,-0.0129849445,0.41845468,0.50829375,-0.08682353,0.008419507,0.41082713,0.41195896,-0.14795347,0.15619725,0.6908169,-6.2092826E-5,-0.19944797,-0.21859623,0.27121824,-0.2924469,-0.53177017,-0.42318472,-0.04362582,769.19415,808.68134,804.65204,772.01465,993.22345,-0.18975830078125,-0.022705078125,1.0,3.835601806640625,2.19818115234375,0.052337646484375,1,1.0,1.0,1.0,1.0,50.00
2022-11-23 20:16:22.811,0.24047475,0.022521636,-0.0129849445,0.41845468,0.50829375,-0.08682353,0.008419507,0.41082713,0.41195896,-0.14795347,0.15619725,0.6908169,-6.2092826E-5,-0.19944797,-0.21859623,0.27121824,-0.2924469,-0.53177017,-0.42318472,-0.04362582,817.9487,811.9048,803.44324,807.0696,928.7546,-0.18975830078125,-0.022705078125,1.0,3.835601806640625,2.19818115234375,0.052337646484375,1,1.0,1.0,1.0,1.0,50.00
2022-11-23 20:16:22.812,0.24047475,0.022521636,-0.0129849445,0.41845468,0.50829375,-0.08682353,0.008419507,0.41082713,0.41195896,-0.14795347,0.15619725,0.6908169,-6.2092826E-5,-0.19944797,-0.21859623,0.27121824,-0.2924469,-0.53177017,-0.42318472,-0.04362582,832.4542,807.0696,799.41394,823.5897,878.3883,-0.18975830078125,-0.022705078125,1.0,3.835601806640625,2.19818115234375,0.052337646484375,1,1.0,1.0,1.0,1.0,50.00
2022-11-23 20:16:22.834,0.24047475,0.022521636,-0.0129849445,0.41845468,0.50829375,-0.08682353,0.008419507,0.41082713,0.41195896,-0.14795347,0.15619725,0.6908169,-6.2092826E-5,-0.19944797,-0.21859623,0.27121824,-0.2924469,-0.53177017,-0.42318472,-0.04362582,788.93774,807.47253,794.57874,782.8938,768.3883,-0.18341064453125,-0.0140380859375,0.9888916015625,4.83001708984375,-0.4486083984375,1.973876953125,1,1.0,1.0,1.0,1.0,50.00
2022-11-23 20:16:22.834,0.24047475,0.022521636,-0.0129849445,0.41845468,0.50829375,-0.08682353,0.008419507,0.41082713,0.41195896,-0.14795347,0.15619725,0.6908169,-6.2092826E-5,-0.19944797,-0.21859623,0.27121824,-0.2924469,-0.53177017,-0.42318472,-0.04362582,753.0769,810.696,794.57874,755.4945,642.27106,-0.18341064453125,-0.0140380859375,0.9888916015625,4.83001708984375,-0.4486083984375,1.973876953125,1,1.0,1.0,1.0,1.0,50.00
2022-11-23 20:16:22.835,0.24047475,0.022521636,-0.0129849445,0.41845468,0.50829375,-0.08682353,0.008419507,0.41082713,0.41195896,-0.14795347,0.15619725,0.6908169,-6.2092826E-5,-0.19944797,-0.21859623,0.27121824,-0.2924469,-0.53177017,-0.42318472,-0.04362582,799.011,809.89014,794.9817,788.1319,759.92676,-0.18341064453125,-0.0140380859375,0.9888916015625,4.83001708984375,-0.4486083984375,1.973876953125,1,1.0,1.0,1.0,1.0,50.00
2022-11-23 20:16:22.835,0.24047475,0.022521636,-0.0129849445,0.41845468,0.50829375,-0.08682353,0.008419507,0.41082713,0.41195896,-0.14795347,0.15619725,0.6908169,-6.2092826E-5,-0.19944797,-0.21859623,0.27121824,-0.2924469,-0.53177017,-0.42318472,-0.04362582,857.8388,808.2784,794.17584,819.5604,878.3883,-0.18341064453125,-0.0140380859375,0.9888916015625,4.83001708984375,-0.4486083984375,1.973876953125,1,1.0,1.0,1.0,1.0,50.00
2022-11-23 20:16:22.835,0.24047475,0.022521636,-0.0129849445,0.41845468,0.50829375,-0.08682353,0.008419507,0.41082713,0.41195896,-0.14795347,0.15619725,0.6908169,-6.2092826E-5,-0.19944797,-0.21859623,0.27121824,-0.2924469,-0.53177017,-0.42318472,-0.04362582,815.9341,800.2198,803.8461,805.8608,898.1319,-0.18341064453125,-0.0140380859375,0.9888916015625,4.83001708984375,-0.4486083984375,1.973876953125,1,1.0,1.0,1.0,1.0,50.00
2022-11-23 20:16:22.836,0.24047475,0.022521636,-0.0129849445,0.41845468,0.50829375,-0.08682353,0.008419507,0.41082713,0.41195896,-0.14795347,0.15619725,0.6908169,-6.2092826E-5,-0.19944797,-0.21859623,0.27121824,-0.2924469,-0.53177017,-0.42318472,-0.04362582,747.03296,802.6374,813.1135,764.35895,811.50183,-0.18341064453125,-0.0140380859375,0.9888916015625,4.83001708984375,-0.4486083984375,1.973876953125,1,1.0,1.0,1.0,1.0,50.00
2022-11-23 20:16:22.836,0.24047475,0.022521636,-0.0129849445,0.41845468,0.50829375,-0.08682353,0.008419507,0.41082713,0.41195896,-0.14795347,0.15619725,0.6908169,-6.2092826E-5,-0.19944797,-0.21859623,0.27121824,-0.2924469,-0.53177017,-0.42318472,-0.04362582,756.7033,801.02563,815.9341,761.53845,722.4542,-0.18341064453125,-0.0140380859375,0.9888916015625,4.83001708984375,-0.4486083984375,1.973876953125,1,1.0,1.0,1.0,1.0,50.00
2022-11-23 20:16:22.836,0.24047475,0.022521636,-0.0129849445,0.41845468,0.50829375,-0.08682353,0.008419507,0.41082713,0.41195896,-0.14795347,0.15619725,0.6908169,-6.2092826E-5,-0.19944797,-0.21859623,0.27121824,-0.2924469,-0.53177017,-0.42318472,-0.04362582,796.99634,793.7729,822.7839,798.60803,844.94507,-0.18341064453125,-0.0140380859375,0.9888916015625,4.83001708984375,-0.4486083984375,1.973876953125,1,1.0,1.0,1.0,1.0,50.00
2022-11-23 20:16:22.836,0.24047475,0.022521636,-0.0129849445,0.41845468,0.50829375,-0.08682353,0.008419507,0.41082713,0.41195896,-0.14795347,0.15619725,0.6908169,-6.2092826E-5,-0.19944797,-0.21859623,0.27121824,-0.2924469,-0.53177017,-0.42318472,-0.04362582,782.8938,789.7436,827.2161,796.1905,1002.8938,-0.18341064453125,-0.0140380859375,0.9888916015625,4.83001708984375,-0.4486083984375,1.973876953125,1,1.0,1.0,1.0,1.0,50.00
2022-11-23 20:16:22.837,0.24047475,0.022521636,-0.0129849445,0.41845468,0.50829375,-0.08682353,0.008419507,0.41082713,0.41195896,-0.14795347,0.15619725,0.6908169,-6.2092826E-5,-0.19944797,-0.21859623,0.27121824,-0.2924469,-0.53177017,-0.42318472,-0.04362582,731.7216,786.1172,826.0073,749.45056,780.4762,-0.18341064453125,-0.0140380859375,0.9888916015625,4.83001708984375,-0.4486083984375,1.973876953125,1,1.0,1.0,1.0,1.0,50.00
2022-11-23 20:16:22.837,0.24047475,0.022521636,-0.0129849445,0.41845468,0.50829375,-0.08682353,0.008419507,0.41082713,0.41195896,-0.14795347,0.15619725,0.6908169,-6.2092826E-5,-0.19944797,-0.21859623,0.27121824,-0.2924469,-0.53177017,-0.42318472,-0.04362582,718.8278,785.31134,832.8571,740.989,640.2564,-0.18341064453125,-0.0140380859375,0.9888916015625,4.83001708984375,-0.4486083984375,1.973876953125,1,1.0,1.0,1.0,1.0,50.00
2022-11-23 20:16:22.837,0.1765033,0.03329765,-0.0049237334,0.44891733,0.45968747,-0.0978011,-0.047514014,0.34082127,0.3330945,-0.17157187,0.1908894,0.672854,-0.007944624,-0.19437411,-0.21742497,0.23233683,-0.29974604,-0.5424936,-0.43788213,-0.058584422,751.8681,777.6557,840.5128,769.59705,990.80585,-0.18341064453125,-0.0140380859375,0.9888916015625,4.83001708984375,-0.4486083984375,1.973876953125,1,1.0,1.0,1.0,1.0,50.00
2022-11-23 20:16:22.883,0.1765033,0.03329765,-0.0049237334,0.44891733,0.45968747,-0.0978011,-0.047514014,0.34082127,0.3330945,-0.17157187,0.1908894,0.672854,-0.007944624,-0.19437411,-0.21742497,0.23233683,-0.29974604,-0.5424936,-0.43788213,-0.058584422,761.9414,776.04395,845.7509,778.46155,1169.7069,-0.19732666015625,-0.01531982421875,1.00189208984375,4.90478515625,1.8243408203125,3.94775390625,1,1.0,1.0,1.0,1.0,50.00
2022-11-23 20:16:22.883,0.1765033,0.03329765,-0.0049237334,0.44891733,0.45968747,-0.0978011,-0.047514014,0.34082127,0.3330945,-0.17157187,0.1908894,0.672854,-0.007944624,-0.19437411,-0.21742497,0.23233683,-0.29974604,-0.5424936,-0.43788213,-0.058584422,713.1868,774.83514,848.5714,740.58606,887.6557,-0.19732666015625,-0.01531982421875,1.00189208984375,4.90478515625,1.8243408203125,3.94775390625,1,1.0,1.0,1.0,1.0,50.00
2022-11-23 20:16:22.883,0.1765033,0.03329765,-0.0049237334,0.44891733,0.45968747,-0.0978011,-0.047514014,0.34082127,0.3330945,-0.17157187,0.1908894,0.672854,-0.007944624,-0.19437411,-0.21742497,0.23233683,-0.29974604,-0.5424936,-0.43788213,-0.058584422,679.7436,771.6117,852.6007,719.6337,729.304,-0.19732666015625,-0.01531982421875,1.00189208984375,4.90478515625,1.8243408203125,3.94775390625,1,1.0,1.0,1.0,1.0,50.00
2022-11-23 20:16:22.884,0.1765033,0.03329765,-0.0049237334,0.44891733,0.45968747,-0.0978011,-0.047514014,0.34082127,0.3330945,-0.17157187,0.1908894,0.672854,-0.007944624,-0.19437411,-0.21742497,0.23233683,-0.29974604,-0.5424936,-0.43788213,-0.058584422,725.2747,771.2088,862.27106,757.9121,794.9817,-0.19732666015625,-0.01531982421875,1.00189208984375,4.90478515625,1.8243408203125,3.94775390625,1,1.0,1.0,1.0,1.0,50.00
2022-11-23 20:16:22.884,0.1765033,0.03329765,-0.0049237334,0.44891733,0.45968747,-0.0978011,-0.047514014,0.34082127,0.3330945,-0.17157187,0.1908894,0.672854,-0.007944624,-0.19437411,-0.21742497,0.23233683,-0.29974604,-0.5424936,-0.43788213,-0.058584422,748.24176,766.77655,867.9121,770.40295,833.2601,-0.19732666015625,-0.01531982421875,1.00189208984375,4.90478515625,1.8243408203125,3.94775390625,1,1.0,1.0,1.0,1.0,50.00
2022-11-23 20:16:22.884,0.1765033,0.03329765,-0.0049237334,0.44891733,0.45968747,-0.0978011,-0.047514014,0.34082127,0.3330945,-0.17157187,0.1908894,0.672854,-0.007944624,-0.19437411,-0.21742497,0.23233683,-0.29974604,-0.5424936,-0.43788213,-0.058584422,701.0989,765.16486,868.315,733.73627,738.97437,-0.19732666015625,-0.01531982421875,1.00189208984375,4.90478515625,1.8243408203125,3.94775390625,1,1.0,1.0,1.0,1.0,50.00
2022-11-23 20:16:22.884,0.1765033,0.03329765,-0.0049237334,0.44891733,0.45968747,-0.0978011,-0.047514014,0.34082127,0.3330945,-0.17157187,0.1908894,0.672854,-0.007944624,-0.19437411,-0.21742497,0.23233683,-0.29974604,-0.5424936,-0.43788213,-0.058584422,678.1319,762.3443,871.53845,722.4542,566.9231,-0.19732666015625,-0.01531982421875,1.00189208984375,4.90478515625,1.8243408203125,3.94775390625,1,1.0,1.0,1.0,1.0,50.00
2022-11-23 20:16:22.884,0.1765033,0.03329765,-0.0049237334,0.44891733,0.45968747,-0.0978011,-0.047514014,0.34082127,0.3330945,-0.17157187,0.1908894,0.672854,-0.007944624,-0.19437411,-0.21742497,0.23233683,-0.29974604,-0.5424936,-0.43788213,-0.058584422,709.15753,758.315,870.32965,749.45056,757.50916,-0.19732666015625,-0.01531982421875,1.00189208984375,4.90478515625,1.8243408203125,3.94775390625,1,1.0,1.0,1.0,1.0,50.00
2022-11-23 20:16:22.885,0.1765033,0.03329765,-0.0049237334,0.44891733,0.45968747,-0.0978011,-0.047514014,0.34082127,0.3330945,-0.17157187,0.1908894,0.672854,-0.007944624,-0.19437411,-0.21742497,0.23233683,-0.29974604,-0.5424936,-0.43788213,-0.058584422,751.8681,755.4945,869.92676,775.64105,1055.6776,-0.19732666015625,-0.01531982421875,1.00189208984375,4.90478515625,1.8243408203125,3.94775390625,1,1.0,1.0,1.0,1.0,50.00
2022-11-23 20:16:22.885,0.1765033,0.03329765,-0.0049237334,0.44891733,0.45968747,-0.0978011,-0.047514014,0.34082127,0.3330945,-0.17157187,0.1908894,0.672854,-0.007944624,-0.19437411,-0.21742497,0.23233683,-0.29974604,-0.5424936,-0.43788213,-0.058584422,729.304,754.2857,869.5238,759.5238,837.6923,-0.19732666015625,-0.01531982421875,1.00189208984375,4.90478515625,1.8243408203125,3.94775390625,1,1.0,1.0,1.0,1.0,50.00
2022-11-23 20:16:22.885,0.1765033,0.03329765,-0.0049237334,0.44891733,0.45968747,-0.0978011,-0.047514014,0.34082127,0.3330945,-0.17157187,0.1908894,0.672854,-0.007944624,-0.19437411,-0.21742497,0.23233683,-0.29974604,-0.5424936,-0.43788213,-0.058584422,677.326,756.30035,867.50916,731.7216,619.707,-0.19732666015625,-0.01531982421875,1.00189208984375,4.90478515625,1.8243408203125,3.94775390625,1,1.0,1.0,1.0,1.0,50.00
2022-11-23 20:16:22.885,0.1765033,0.03329765,-0.0049237334,0.44891733,0.45968747,-0.0978011,-0.047514014,0.34082127,0.3330945,-0.17157187,0.1908894,0.672854,-0.007944624,-0.19437411,-0.21742497,0.23233683,-0.29974604,-0.5424936,-0.43788213,-0.058584422,705.9341,759.5238,867.9121,752.27106,626.55676,-0.19732666015625,-0.01531982421875,1.00189208984375,4.90478515625,1.8243408203125,3.94775390625,1,1.0,1.0,1.0,1.0,50.00
2022-11-23 20:16:22.933,0.1765033,0.03329765,-0.0049237334,0.44891733,0.45968747,-0.0978011,-0.047514014,0.34082127,0.3330945,-0.17157187,0.1908894,0.672854,-0.007944624,-0.19437411,-0.21742497,0.23233683,-0.29974604,-0.5424936,-0.43788213,-0.058584422,763.1502,761.9414,868.71796,780.07324,838.0952,-0.19732666015625,-0.01531982421875,1.00189208984375,4.90478515625,1.8243408203125,3.94775390625,1,1.0,1.0,1.0,1.0,50.00
2022-11-23 20:16:22.934,0.1765033,0.03329765,-0.0049237334,0.44891733,0.45968747,-0.0978011,-0.047514014,0.34082127,0.3330945,-0.17157187,0.1908894,0.672854,-0.007944624,-0.19437411,-0.21742497,0.23233683,-0.29974604,-0.5424936,-0.43788213,-0.058584422,758.71796,764.7619,865.4945,770.40295,830.0366,-0.19732666015625,-0.01531982421875,1.00189208984375,4.90478515625,1.8243408203125,3.94775390625,1,1.0,1.0,1.0,1.0,50.00
2022-11-23 20:16:22.934,0.1765033,0.03329765,-0.0049237334,0.44891733,0.45968747,-0.0978011,-0.047514014,0.34082127,0.3330945,-0.17157187,0.1908894,0.672854,-0.007944624,-0.19437411,-0.21742497,0.23233683,-0.29974604,-0.5424936,-0.43788213,-0.058584422,720.4396,768.7912,861.8681,748.6447,682.96704,-0.19732666015625,-0.01531982421875,1.00189208984375,4.90478515625,1.8243408203125,3.94775390625,1,1.0,1.0,1.0,1.0,50.00
2022-11-23 20:16:22.934,0.1765033,0.03329765,-0.0049237334,0.44891733,0.45968747,-0.0978011,-0.047514014,0.34082127,0.3330945,-0.17157187,0.1908894,0.672854,-0.007944624,-0.19437411,-0.21742497,0.23233683,-0.29974604,-0.5424936,-0.43788213,-0.058584422,722.0513,770.40295,861.06226,761.53845,836.08057,-0.19732666015625,-0.01531982421875,1.00189208984375,4.90478515625,1.8243408203125,3.94775390625,1,1.0,1.0,1.0,1.0,50.00
2022-11-23 20:16:22.934,0.1765033,0.03329765,-0.0049237334,0.44891733,0.45968747,-0.0978011,-0.047514014,0.34082127,0.3330945,-0.17157187,0.1908894,0.672854,-0.007944624,-0.19437411,-0.21742497,0.23233683,-0.29974604,-0.5424936,-0.43788213,-0.058584422,767.1795,771.6117,856.63007,803.44324,988.3883,-0.19732666015625,-0.01531982421875,1.00189208984375,4.90478515625,1.8243408203125,3.94775390625,1,1.0,1.0,1.0,1.0,50.00
2022-11-23 20:16:22.935,0.1765033,0.03329765,-0.0049237334,0.44891733,0.45968747,-0.0978011,-0.047514014,0.34082127,0.3330945,-0.17157187,0.1908894,0.672854,-0.007944624,-0.19437411,-0.21742497,0.23233683,-0.29974604,-0.5424936,-0.43788213,-0.058584422,786.1172,773.22345,855.42126,813.1135,962.6007,-0.19732666015625,-0.01531982421875,1.00189208984375,4.90478515625,1.8243408203125,3.94775390625,1,1.0,1.0,1.0,1.0,50.00
2022-11-23 20:16:22.935,0.1765033,0.03329765,-0.0049237334,0.44891733,0.45968747,-0.0978011,-0.047514014,0.34082127,0.3330945,-0.17157187,0.1908894,0.672854,-0.007944624,-0.19437411,-0.21742497,0.23233683,-0.29974604,-0.5424936,-0.43788213,-0.058584422,742.6007,772.8205,851.39197,775.2381,826.4103,-0.19732666015625,-0.01531982421875,1.00189208984375,4.90478515625,1.8243408203125,3.94775390625,1,1.0,1.0,1.0,1.0,50.00
2022-11-23 20:16:22.935,0.1765033,0.03329765,-0.0049237334,0.44891733,0.45968747,-0.0978011,-0.047514014,0.34082127,0.3330945,-0.17157187,0.1908894,0.672854,-0.007944624,-0.19437411,-0.21742497,0.23233683,-0.29974604,-0.5424936,-0.43788213,-0.058584422,716.4103,774.83514,842.9304,762.74725,916.6667,-0.19732666015625,-0.01531982421875,1.00189208984375,4.90478515625,1.8243408203125,3.94775390625,1,1.0,1.0,1.0,1.0,50.00
2022-11-23 20:16:22.936,0.1765033,0.03329765,-0.0049237334,0.44891733,0.45968747,-0.0978011,-0.047514014,0.34082127,0.3330945,-0.17157187,0.1908894,0.672854,-0.007944624,-0.19437411,-0.21742497,0.23233683,-0.29974604,-0.5424936,-0.43788213,-0.058584422,765.16486,782.0879,840.9158,795.38464,990.0,-0.19732666015625,-0.01531982421875,1.00189208984375,4.90478515625,1.8243408203125,3.94775390625,1,1.0,1.0,1.0,1.0,50.00
2022-11-23 20:16:22.936,0.1765033,0.03329765,-0.0049237334,0.44891733,0.45968747,-0.0978011,-0.047514014,0.34082127,0.3330945,-0.17157187,0.1908894,0.672854,-0.007944624,-0.19437411,-0.21742497,0.23233683,-0.29974604,-0.5424936,-0.43788213,-0.058584422,804.65204,784.90845,837.28937,815.12823,823.5897,-0.19732666015625,-0.01531982421875,1.00189208984375,4.90478515625,1.8243408203125,3.94775390625,1,1.0,1.0,1.0,1.0,50.00
2022-11-23 20:16:22.936,0.1765033,0.03329765,-0.0049237334,0.44891733,0.45968747,-0.0978011,-0.047514014,0.34082127,0.3330945,-0.17157187,0.1908894,0.672854,-0.007944624,-0.19437411,-0.21742497,0.23233683,-0.29974604,-0.5424936,-0.43788213,-0.058584422,779.67035,780.07324,834.0659,796.99634,722.4542,-0.19732666015625,-0.01531982421875,1.00189208984375,4.90478515625,1.8243408203125,3.94775390625,1,1.0,1.0,1.0,1.0,50.00
2022-11-23 20:16:22.936,0.1765033,0.03329765,-0.0049237334,0.44891733,0.45968747,-0.0978011,-0.047514014,0.34082127,0.3330945,-0.17157187,0.1908894,0.672854,-0.007944624,-0.19437411,-0.21742497,0.23233683,-0.29974604,-0.5424936,-0.43788213,-0.058584422,743.8095,781.685,832.4542,774.43225,587.0696,-0.19732666015625,-0.01531982421875,1.00189208984375,4.90478515625,1.8243408203125,3.94775390625,1,1.0,1.0,1.0,1.0,50.00
2022-11-23 20:16:22.984,0.1765033,0.03329765,-0.0049237334,0.44891733,0.45968747,-0.0978011,-0.047514014,0.34082127,0.3330945,-0.17157187,0.1908894,0.672854,-0.007944624,-0.19437411,-0.21742497,0.23233683,-0.29974604,-0.5424936,-0.43788213,-0.058584422,780.07324,786.52014,825.6044,799.011,657.1795,-0.17974853515625,-0.00482177734375,1.00286865234375,2.773895263671875,-0.770111083984375,6.826324462890625,1,1.0,1.0,1.0,1.0,50.00
2022-11-23 20:16:22.984,0.10557215,0.077364735,0.07277642,0.44342148,0.42252547,-0.08679587,-0.027247537,0.29854476,0.27208692,-0.05782843,0.30461854,0.6668637,-0.014279235,-0.18109167,-0.21546334,0.21865807,-0.30170763,-0.562584,-0.45510635,-0.05963949,831.2454,788.1319,822.7839,827.619,951.7216,-0.17974853515625,-0.00482177734375,1.00286865234375,2.773895263671875,-0.770111083984375,6.826324462890625,1,1.0,1.0,1.0,1.0,50.00
2022-11-23 20:16:22.986,0.10557215,0.077364735,0.07277642,0.44342148,0.42252547,-0.08679587,-0.027247537,0.29854476,0.27208692,-0.05782843,0.30461854,0.6668637,-0.014279235,-0.18109167,-0.21546334,0.21865807,-0.30170763,-0.562584,-0.45510635,-0.05963949,813.1135,792.96704,821.1722,812.3077,983.1502,-0.17974853515625,-0.00482177734375,1.00286865234375,2.773895263671875,-0.770111083984375,6.826324462890625,1,1.0,1.0,1.0,1.0,50.00
2022-11-23 20:16:22.986,0.10557215,0.077364735,0.07277642,0.44342148,0.42252547,-0.08679587,-0.027247537,0.29854476,0.27208692,-0.05782843,0.30461854,0.6668637,-0.014279235,-0.18109167,-0.21546334,0.21865807,-0.30170763,-0.562584,-0.45510635,-0.05963949,770.40295,792.1612,819.5604,787.72894,838.49817,-0.17974853515625,-0.00482177734375,1.00286865234375,2.773895263671875,-0.770111083984375,6.826324462890625,1,1.0,1.0,1.0,1.0,50.00
2022-11-23 20:16:22.986,0.10557215,0.077364735,0.07277642,0.44342148,0.42252547,-0.08679587,-0.027247537,0.29854476,0.27208692,-0.05782843,0.30461854,0.6668637,-0.014279235,-0.18109167,-0.21546334,0.21865807,-0.30170763,-0.562584,-0.45510635,-0.05963949,778.46155,793.7729,819.5604,799.011,761.53845,-0.17974853515625,-0.00482177734375,1.00286865234375,2.773895263671875,-0.770111083984375,6.826324462890625,1,1.0,1.0,1.0,1.0,50.00
2022-11-23 20:16:22.986,0.10557215,0.077364735,0.07277642,0.44342148,0.42252547,-0.08679587,-0.027247537,0.29854476,0.27208692,-0.05782843,0.30461854,0.6668637,-0.014279235,-0.18109167,-0.21546334,0.21865807,-0.30170763,-0.562584,-0.45510635,-0.05963949,824.7985,800.2198,818.3516,834.0659,750.65936,-0.17974853515625,-0.00482177734375,1.00286865234375,2.773895263671875,-0.770111083984375,6.826324462890625,1,1.0,1.0,1.0,1.0,50.00
2022-11-23 20:16:22.987,0.10557215,0.077364735,0.07277642,0.44342148,0.42252547,-0.08679587,-0.027247537,0.29854476,0.27208692,-0.05782843,0.30461854,0.6668637,-0.014279235,-0.18109167,-0.21546334,0.21865807,-0.30170763,-0.562584,-0.45510635,-0.05963949,829.2308,801.8315,817.5458,840.9158,961.39197,-0.17974853515625,-0.00482177734375,1.00286865234375,2.773895263671875,-0.770111083984375,6.826324462890625,1,1.0,1.0,1.0,1.0,50.00
2022-11-23 20:16:22.987,0.10557215,0.077364735,0.07277642,0.44342148,0.42252547,-0.08679587,-0.027247537,0.29854476,0.27208692,-0.05782843,0.30461854,0.6668637,-0.014279235,-0.18109167,-0.21546334,0.21865807,-0.30170763,-0.562584,-0.45510635,-0.05963949,785.7143,803.8461,818.3516,804.65204,1063.3334,-0.17974853515625,-0.00482177734375,1.00286865234375,2.773895263671875,-0.770111083984375,6.826324462890625,1,1.0,1.0,1.0,1.0,50.00
2022-11-23 20:16:22.987,0.10557215,0.077364735,0.07277642,0.44342148,0.42252547,-0.08679587,-0.027247537,0.29854476,0.27208692,-0.05782843,0.30461854,0.6668637,-0.014279235,-0.18109167,-0.21546334,0.21865807,-0.30170763,-0.562584,-0.45510635,-0.05963949,774.43225,807.8755,821.1722,797.8022,722.0513,-0.17974853515625,-0.00482177734375,1.00286865234375,2.773895263671875,-0.770111083984375,6.826324462890625,1,1.0,1.0,1.0,1.0,50.00
2022-11-23 20:16:22.987,0.10557215,0.077364735,0.07277642,0.44342148,0.42252547,-0.08679587,-0.027247537,0.29854476,0.27208692,-0.05782843,0.30461854,0.6668637,-0.014279235,-0.18109167,-0.21546334,0.21865807,-0.30170763,-0.562584,-0.45510635,-0.05963949,817.9487,805.4579,817.5458,834.87177,694.65204,-0.17974853515625,-0.00482177734375,1.00286865234375,2.773895263671875,-0.770111083984375,6.826324462890625,1,1.0,1.0,1.0,1.0,50.00
2022-11-23 20:16:22.988,0.10557215,0.077364735,0.07277642,0.44342148,0.42252547,-0.08679587,-0.027247537,0.29854476,0.27208692,-0.05782843,0.30461854,0.6668637,-0.014279235,-0.18109167,-0.21546334,0.21865807,-0.30170763,-0.562584,-0.45510635,-0.05963949,846.1539,808.68134,814.7253,843.3333,871.13556,-0.17974853515625,-0.00482177734375,1.00286865234375,2.773895263671875,-0.770111083984375,6.826324462890625,1,1.0,1.0,1.0,1.0,50.00
2022-11-23 20:16:22.988,0.10557215,0.077364735,0.07277642,0.44342148,0.42252547,-0.08679587,-0.027247537,0.29854476,0.27208692,-0.05782843,0.30461854,0.6668637,-0.014279235,-0.18109167,-0.21546334,0.21865807,-0.30170763,-0.562584,-0.45510635,-0.05963949,811.50183,809.0842,813.91943,811.0989,772.01465,-0.17974853515625,-0.00482177734375,1.00286865234375,2.773895263671875,-0.770111083984375,6.826324462890625,1,1.0,1.0,1.0,1.0,50.00
2022-11-23 20:16:23.033,0.10557215,0.077364735,0.07277642,0.44342148,0.42252547,-0.08679587,-0.027247537,0.29854476,0.27208692,-0.05782843,0.30461854,0.6668637,-0.014279235,-0.18109167,-0.21546334,0.21865807,-0.30170763,-0.562584,-0.45510635,-0.05963949,786.1172,802.23444,816.337,797.8022,591.9048,-0.1876220703125,-0.00787353515625,1.0025634765625,1.966400146484375,-1.5252685546875,10.81146240234375,1,1.0,1.0,1.0,1.0,50.00
2022-11-23 20:16:23.033,0.10557215,0.077364735,0.07277642,0.44342148,0.42252547,-0.08679587,-0.027247537,0.29854476,0.27208692,-0.05782843,0.30461854,0.6668637,-0.014279235,-0.18109167,-0.21546334,0.21865807,-0.30170763,-0.562584,-0.45510635,-0.05963949,826.8132,803.0403,816.337,833.2601,644.2857,-0.1876220703125,-0.00787353515625,1.0025634765625,1.966400146484375,-1.5252685546875,10.81146240234375,1,1.0,1.0,1.0,1.0,50.00
2022-11-23 20:16:23.033,0.10557215,0.077364735,0.07277642,0.44342148,0.42252547,-0.08679587,-0.027247537,0.29854476,0.27208692,-0.05782843,0.30461854,0.6668637,-0.014279235,-0.18109167,-0.21546334,0.21865807,-0.30170763,-0.562584,-0.45510635,-0.05963949,852.1978,803.0403,810.696,856.63007,823.1868,-0.1876220703125,-0.00787353515625,1.0025634765625,1.966400146484375,-1.5252685546875,10.81146240234375,1,1.0,1.0,1.0,1.0,50.00
2022-11-23 20:16:23.034,0.10557215,0.077364735,0.07277642,0.44342148,0.42252547,-0.08679587,-0.027247537,0.29854476,0.27208692,-0.05782843,0.30461854,0.6668637,-0.014279235,-0.18109167,-0.21546334,0.21865807,-0.30170763,-0.562584,-0.45510635,-0.05963949,818.7546,800.6227,811.9048,831.6484,753.0769,-0.1876220703125,-0.00787353515625,1.0025634765625,1.966400146484375,-1.5252685546875,10.81146240234375,1,1.0,1.0,1.0,1.0,50.00
2022-11-23 20:16:23.034,0.10557215,0.077364735,0.07277642,0.44342148,0.42252547,-0.08679587,-0.027247537,0.29854476,0.27208692,-0.05782843,0.30461854,0.6668637,-0.014279235,-0.18109167,-0.21546334,0.21865807,-0.30170763,-0.562584,-0.45510635,-0.05963949,782.0879,800.6227,815.5311,815.12823,636.63007,-0.1876220703125,-0.00787353515625,1.0025634765625,1.966400146484375,-1.5252685546875,10.81146240234375,1,1.0,1.0,1.0,1.0,50.00
2022-11-23 20:16:23.034,0.10557215,0.077364735,0.07277642,0.44342148,0.42252547,-0.08679587,-0.027247537,0.29854476,0.27208692,-0.05782843,0.30461854,0.6668637,-0.014279235,-0.18109167,-0.21546334,0.21865807,-0.30170763,-0.562584,-0.45510635,-0.05963949,810.696,807.47253,817.1429,838.49817,728.0952,-0.1876220703125,-0.00787353515625,1.0025634765625,1.966400146484375,-1.5252685546875,10.81146240234375,1,1.0,1.0,1.0,1.0,50.00
2022-11-23 20:16:23.034,0.10557215,0.077364735,0.07277642,0.44342148,0.42252547,-0.08679587,-0.027247537,0.29854476,0.27208692,-0.05782843,0.30461854,0.6668637,-0.014279235,-0.18109167,-0.21546334,0.21865807,-0.30170763,-0.562584,-0.45510635,-0.05963949,852.1978,811.9048,812.3077,859.0476,1002.0879,-0.1876220703125,-0.00787353515625,1.0025634765625,1.966400146484375,-1.5252685546875,10.81146240234375,1,1.0,1.0,1.0,1.0,50.00
2022-11-23 20:16:23.035,0.10557215,0.077364735,0.07277642,0.44342148,0.42252547,-0.08679587,-0.027247537,0.29854476,0.27208692,-0.05782843,0.30461854,0.6668637,-0.014279235,-0.18109167,-0.21546334,0.21865807,-0.30170763,-0.562584,-0.45510635,-0.05963949,844.5421,811.0989,811.9048,848.97437,954.5421,-0.1876220703125,-0.00787353515625,1.0025634765625,1.966400146484375,-1.5252685546875,10.81146240234375,1,1.0,1.0,1.0,1.0,50.00
2022-11-23 20:16:23.035,0.10557215,0.077364735,0.07277642,0.44342148,0.42252547,-0.08679587,-0.027247537,0.29854476,0.27208692,-0.05782843,0.30461854,0.6668637,-0.014279235,-0.18109167,-0.21546334,0.21865807,-0.30170763,-0.562584,-0.45510635,-0.05963949,810.696,811.50183,813.1135,817.1429,609.6337,-0.1876220703125,-0.00787353515625,1.0025634765625,1.966400146484375,-1.5252685546875,10.81146240234375,1,1.0,1.0,1.0,1.0,50.00
2022-11-23 20:16:23.035,0.10557215,0.077364735,0.07277642,0.44342148,0.42252547,-0.08679587,-0.027247537,0.29854476,0.27208692,-0.05782843,0.30461854,0.6668637,-0.014279235,-0.18109167,-0.21546334,0.21865807,-0.30170763,-0.562584,-0.45510635,-0.05963949,810.293,811.0989,811.9048,814.7253,660.0,-0.1876220703125,-0.00787353515625,1.0025634765625,1.966400146484375,-1.5252685546875,10.81146240234375,1,1.0,1.0,1.0,1.0,50.00
2022-11-23 20:16:23.035,0.10557215,0.077364735,0.07277642,0.44342148,0.42252547,-0.08679587,-0.027247537,0.29854476,0.27208692,-0.05782843,0.30461854,0.6668637,-0.014279235,-0.18109167,-0.21546334,0.21865807,-0.30170763,-0.562584,-0.45510635,-0.05963949,850.18317,808.68134,811.0989,840.10986,945.2747,-0.1876220703125,-0.00787353515625,1.0025634765625,1.966400146484375,-1.5252685546875,10.81146240234375,1,1.0,1.0,1.0,1.0,50.00
2022-11-23 20:16:23.036,0.10557215,0.077364735,0.07277642,0.44342148,0.42252547,-0.08679587,-0.027247537,0.29854476,0.27208692,-0.05782843,0.30461854,0.6668637,-0.014279235,-0.18109167,-0.21546334,0.21865807,-0.30170763,-0.562584,-0.45510635,-0.05963949,855.42126,807.47253,809.89014,840.5128,920.293,-0.1876220703125,-0.00787353515625,1.0025634765625,1.966400146484375,-1.5252685546875,10.81146240234375,1,1.0,1.0,1.0,1.0,50.00
2022-11-23 20:16:23.082,0.10557215,0.077364735,0.07277642,0.44342148,0.42252547,-0.08679587,-0.027247537,0.29854476,0.27208692,-0.05782843,0.30461854,0.6668637,-0.014279235,-0.18109167,-0.21546334,0.21865807,-0.30170763,-0.562584,-0.45510635,-0.05963949,811.50183,809.4872,803.44324,810.696,721.6484,-0.1934814453125,-0.0084228515625,1.00848388671875,0.67291259765625,-0.485992431640625,10.160980224609375,1,1.0,1.0,1.0,1.0,50.00
2022-11-23 20:16:23.083,0.10557215,0.077364735,0.07277642,0.44342148,0.42252547,-0.08679587,-0.027247537,0.29854476,0.27208692,-0.05782843,0.30461854,0.6668637,-0.014279235,-0.18109167,-0.21546334,0.21865807,-0.30170763,-0.562584,-0.45510635,-0.05963949,788.93774,808.68134,798.60803,800.2198,658.3883,-0.1934814453125,-0.0084228515625,1.00848388671875,0.67291259765625,-0.485992431640625,10.160980224609375,1,1.0,1.0,1.0,1.0,50.00
2022-11-23 20:16:23.083,0.10557215,0.077364735,0.07277642,0.44342148,0.42252547,-0.08679587,-0.027247537,0.29854476,0.27208692,-0.05782843,0.30461854,0.6668637,-0.014279235,-0.18109167,-0.21546334,0.21865807,-0.30170763,-0.562584,-0.45510635,-0.05963949,826.4103,804.2491,802.23444,826.8132,762.74725,-0.1934814453125,-0.0084228515625,1.00848388671875,0.67291259765625,-0.485992431640625,10.160980224609375,1,1.0,1.0,1.0,1.0,50.00
2022-11-23 20:16:23.083,0.041916776,0.17645188,0.24038112,0.43467695,0.40434662,-0.0030182332,0.11378311,0.2731096,0.26264057,0.2470709,0.49941072,0.66457635,-0.019709485,-0.1636652,-0.20819294,0.21089633,-0.30228335,-0.5877752,-0.46653476,-0.06425165,853.4066,809.0842,805.8608,834.87177,840.5128,-0.1934814453125,-0.0084228515625,1.00848388671875,0.67291259765625,-0.485992431640625,10.160980224609375,1,1.0,1.0,1.0,1.0,50.00
2022-11-23 20:16:23.084,0.041916776,0.17645188,0.24038112,0.43467695,0.40434662,-0.0030182332,0.11378311,0.2731096,0.26264057,0.2470709,0.49941072,0.66457635,-0.019709485,-0.1636652,-0.20819294,0.21089633,-0.30228335,-0.5877752,-0.46653476,-0.06425165,807.8755,813.5165,803.8461,798.60803,711.978,-0.1934814453125,-0.0084228515625,1.00848388671875,0.67291259765625,-0.485992431640625,10.160980224609375,1,1.0,1.0,1.0,1.0,50.00
2022-11-23 20:16:23.085,0.041916776,0.17645188,0.24038112,0.43467695,0.40434662,-0.0030182332,0.11378311,0.2731096,0.26264057,0.2470709,0.49941072,0.66457635,-0.019709485,-0.1636652,-0.20819294,0.21089633,-0.30228335,-0.5877752,-0.46653476,-0.06425165,770.80585,806.6667,800.2198,774.83514,731.7216,-0.1934814453125,-0.0084228515625,1.00848388671875,0.67291259765625,-0.485992431640625,10.160980224609375,1,1.0,1.0,1.0,1.0,50.00
2022-11-23 20:16:23.085,0.041916776,0.17645188,0.24038112,0.43467695,0.40434662,-0.0030182332,0.11378311,0.2731096,0.26264057,0.2470709,0.49941072,0.66457635,-0.019709485,-0.1636652,-0.20819294,0.21089633,-0.30228335,-0.5877752,-0.46653476,-0.06425165,799.011,803.44324,796.99634,796.99634,848.1685,-0.1934814453125,-0.0084228515625,1.00848388671875,0.67291259765625,-0.485992431640625,10.160980224609375,1,1.0,1.0,1.0,1.0,50.00
2022-11-23 20:16:23.085,0.041916776,0.17645188,0.24038112,0.43467695,0.40434662,-0.0030182332,0.11378311,0.2731096,0.26264057,0.2470709,0.49941072,0.66457635,-0.019709485,-0.1636652,-0.20819294,0.21089633,-0.30228335,-0.5877752,-0.46653476,-0.06425165,835.6777,805.05493,797.8022,821.5751,844.1392,-0.1934814453125,-0.0084228515625,1.00848388671875,0.67291259765625,-0.485992431640625,10.160980224609375,1,1.0,1.0,1.0,1.0,50.00
2022-11-23 20:16:23.085,0.041916776,0.17645188,0.24038112,0.43467695,0.40434662,-0.0030182332,0.11378311,0.2731096,0.26264057,0.2470709,0.49941072,0.66457635,-0.019709485,-0.1636652,-0.20819294,0.21089633,-0.30228335,-0.5877752,-0.46653476,-0.06425165,815.9341,805.4579,805.4579,797.3993,759.92676,-0.1934814453125,-0.0084228515625,1.00848388671875,0.67291259765625,-0.485992431640625,10.160980224609375,1,1.0,1.0,1.0,1.0,50.00
2022-11-23 20:16:23.086,0.041916776,0.17645188,0.24038112,0.43467695,0.40434662,-0.0030182332,0.11378311,0.2731096,0.26264057,0.2470709,0.49941072,0.66457635,-0.019709485,-0.1636652,-0.20819294,0.21089633,-0.30228335,-0.5877752,-0.46653476,-0.06425165,774.0293,805.8608,803.0403,770.40295,750.2564,-0.1934814453125,-0.0084228515625,1.00848388671875,0.67291259765625,-0.485992431640625,10.160980224609375,1,1.0,1.0,1.0,1.0,50.00
2022-11-23 20:16:23.086,0.041916776,0.17645188,0.24038112,0.43467695,0.40434662,-0.0030182332,0.11378311,0.2731096,0.26264057,0.2470709,0.49941072,0.66457635,-0.019709485,-0.1636652,-0.20819294,0.21089633,-0.30228335,-0.5877752,-0.46653476,-0.06425165,789.7436,805.05493,796.5934,792.96704,815.9341,-0.1934814453125,-0.0084228515625,1.00848388671875,0.67291259765625,-0.485992431640625,10.160980224609375,1,1.0,1.0,1.0,1.0,50.00
2022-11-23 20:16:23.086,0.041916776,0.17645188,0.24038112,0.43467695,0.40434662,-0.0030182332,0.11378311,0.2731096,0.26264057,0.2470709,0.49941072,0.66457635,-0.019709485,-0.1636652,-0.20819294,0.21089633,-0.30228335,-0.5877752,-0.46653476,-0.06425165,833.2601,808.68134,800.2198,826.0073,817.1429,-0.1934814453125,-0.0084228515625,1.00848388671875,0.67291259765625,-0.485992431640625,10.160980224609375,1,1.0,1.0,1.0,1.0,50.00
2022-11-23 20:16:23.138,0.041916776,0.17645188,0.24038112,0.43467695,0.40434662,-0.0030182332,0.11378311,0.2731096,0.26264057,0.2470709,0.49941072,0.66457635,-0.019709485,-0.1636652,-0.20819294,0.21089633,-0.30228335,-0.5877752,-0.46653476,-0.06425165,823.9927,810.696,803.0403,819.15753,850.989,-0.19464111328125,-0.01483154296875,0.9998779296875,-0.35888671875,0.2392578125,8.25439453125,1,1.0,1.0,1.0,1.0,50.00
2022-11-23 20:16:23.139,0.041916776,0.17645188,0.24038112,0.43467695,0.40434662,-0.0030182332,0.11378311,0.2731096,0.26264057,0.2470709,0.49941072,0.66457635,-0.019709485,-0.1636652,-0.20819294,0.21089633,-0.30228335,-0.5877752,-0.46653476,-0.06425165,766.3736,812.3077,796.5934,776.04395,765.56775,-0.19464111328125,-0.01483154296875,0.9998779296875,-0.35888671875,0.2392578125,8.25439453125,1,1.0,1.0,1.0,1.0,50.00
2022-11-23 20:16:23.139,0.041916776,0.17645188,0.24038112,0.43467695,0.40434662,-0.0030182332,0.11378311,0.2731096,0.26264057,0.2470709,0.49941072,0.66457635,-0.019709485,-0.1636652,-0.20819294,0.21089633,-0.30228335,-0.5877752,-0.46653476,-0.06425165,760.32965,806.6667,791.3553,772.8205,681.3553,-0.19464111328125,-0.01483154296875,0.9998779296875,-0.35888671875,0.2392578125,8.25439453125,1,1.0,1.0,1.0,1.0,50.00
2022-11-23 20:16:23.139,0.041916776,0.17645188,0.24038112,0.43467695,0.40434662,-0.0030182332,0.11378311,0.2731096,0.26264057,0.2470709,0.49941072,0.66457635,-0.019709485,-0.1636652,-0.20819294,0.21089633,-0.30228335,-0.5877752,-0.46653476,-0.06425165,815.9341,803.8461,792.1612,806.6667,761.9414,-0.19464111328125,-0.01483154296875,0.9998779296875,-0.35888671875,0.2392578125,8.25439453125,1,1.0,1.0,1.0,1.0,50.00
2022-11-23 20:16:23.139,0.041916776,0.17645188,0.24038112,0.43467695,0.40434662,-0.0030182332,0.11378311,0.2731096,0.26264057,0.2470709,0.49941072,0.66457635,-0.019709485,-0.1636652,-0.20819294,0.21089633,-0.30228335,-0.5877752,-0.46653476,-0.06425165,828.4249,807.47253,788.93774,810.293,880.0,-0.19464111328125,-0.01483154296875,0.9998779296875,-0.35888671875,0.2392578125,8.25439453125,1,1.0,1.0,1.0,1.0,50.00
2022-11-23 20:16:23.140,0.041916776,0.17645188,0.24038112,0.43467695,0.40434662,-0.0030182332,0.11378311,0.2731096,0.26264057,0.2470709,0.49941072,0.66457635,-0.019709485,-0.1636652,-0.20819294,0.21089633,-0.30228335,-0.5877752,-0.46653476,-0.06425165,784.90845,810.696,788.5348,782.0879,814.7253,-0.19464111328125,-0.01483154296875,0.9998779296875,-0.35888671875,0.2392578125,8.25439453125,1,1.0,1.0,1.0,1.0,50.00
2022-11-23 20:16:23.140,0.041916776,0.17645188,0.24038112,0.43467695,0.40434662,-0.0030182332,0.11378311,0.2731096,0.26264057,0.2470709,0.49941072,0.66457635,-0.019709485,-0.1636652,-0.20819294,0.21089633,-0.30228335,-0.5877752,-0.46653476,-0.06425165,757.1062,810.696,790.54944,772.4176,676.52014,-0.19464111328125,-0.01483154296875,0.9998779296875,-0.35888671875,0.2392578125,8.25439453125,1,1.0,1.0,1.0,1.0,50.00
2022-11-23 20:16:23.140,0.041916776,0.17645188,0.24038112,0.43467695,0.40434662,-0.0030182332,0.11378311,0.2731096,0.26264057,0.2470709,0.49941072,0.66457635,-0.019709485,-0.1636652,-0.20819294,0.21089633,-0.30228335,-0.5877752,-0.46653476,-0.06425165,790.54944,806.26373,791.3553,799.41394,732.52747,-0.19464111328125,-0.01483154296875,0.9998779296875,-0.35888671875,0.2392578125,8.25439453125,1,1.0,1.0,1.0,1.0,50.00
2022-11-23 20:16:23.140,0.041916776,0.17645188,0.24038112,0.43467695,0.40434662,-0.0030182332,0.11378311,0.2731096,0.26264057,0.2470709,0.49941072,0.66457635,-0.019709485,-0.1636652,-0.20819294,0.21089633,-0.30228335,-0.5877752,-0.46653476,-0.06425165,826.8132,803.8461,794.17584,815.5311,862.674,-0.19464111328125,-0.01483154296875,0.9998779296875,-0.35888671875,0.2392578125,8.25439453125,1,1.0,1.0,1.0,1.0,50.00
2022-11-23 20:16:23.140,0.041916776,0.17645188,0.24038112,0.43467695,0.40434662,-0.0030182332,0.11378311,0.2731096,0.26264057,0.2470709,0.49941072,0.66457635,-0.019709485,-0.1636652,-0.20819294,0.21089633,-0.30228335,-0.5877752,-0.46653476,-0.06425165,786.52014,801.4286,790.9524,789.34064,896.9231,-0.19464111328125,-0.01483154296875,0.9998779296875,-0.35888671875,0.2392578125,8.25439453125,1,1.0,1.0,1.0,1.0,50.00
2022-11-23 20:16:23.141,0.041916776,0.17645188,0.24038112,0.43467695,0.40434662,-0.0030182332,0.11378311,0.2731096,0.26264057,0.2470709,0.49941072,0.66457635,-0.019709485,-0.1636652,-0.20819294,0.21089633,-0.30228335,-0.5877752,-0.46653476,-0.06425165,748.24176,801.02563,790.14655,758.71796,730.9158,-0.19464111328125,-0.01483154296875,0.9998779296875,-0.35888671875,0.2392578125,8.25439453125,1,1.0,1.0,1.0,1.0,50.00
2022-11-23 20:16:23.141,0.041916776,0.17645188,0.24038112,0.43467695,0.40434662,-0.0030182332,0.11378311,0.2731096,0.26264057,0.2470709,0.49941072,0.66457635,-0.019709485,-0.1636652,-0.20819294,0.21089633,-0.30228335,-0.5877752,-0.46653476,-0.06425165,785.7143,800.2198,789.34064,788.1319,656.3736,-0.19464111328125,-0.01483154296875,0.9998779296875,-0.35888671875,0.2392578125,8.25439453125,1,1.0,1.0,1.0,1.0,50.00
2022-11-23 20:16:23.162,0.041916776,0.17645188,0.24038112,0.43467695,0.40434662,-0.0030182332,0.11378311,0.2731096,0.26264057,0.2470709,0.49941072,0.66457635,-0.019709485,-0.1636652,-0.20819294,0.21089633,-0.30228335,-0.5877752,-0.46653476,-0.06425165,830.84247,805.8608,795.38464,828.8278,834.87177,-0.19464111328125,-0.01483154296875,0.9998779296875,-0.35888671875,0.2392578125,8.25439453125,1,1.0,1.0,1.0,1.0,50.00
2022-11-23 20:16:23.162,0.041916776,0.17645188,0.24038112,0.43467695,0.40434662,-0.0030182332,0.11378311,0.2731096,0.26264057,0.2470709,0.49941072,0.66457635,-0.019709485,-0.1636652,-0.20819294,0.21089633,-0.30228335,-0.5877752,-0.46653476,-0.06425165,809.4872,809.4872,797.3993,810.696,822.381,-0.19464111328125,-0.01483154296875,0.9998779296875,-0.35888671875,0.2392578125,8.25439453125,1,1.0,1.0,1.0,1.0,50.00
2022-11-23 20:16:23.163,0.041916776,0.17645188,0.24038112,0.43467695,0.40434662,-0.0030182332,0.11378311,0.2731096,0.26264057,0.2470709,0.49941072,0.66457635,-0.019709485,-0.1636652,-0.20819294,0.21089633,-0.30228335,-0.5877752,-0.46653476,-0.06425165,770.0,805.8608,792.5641,775.2381,597.9487,-0.19464111328125,-0.01483154296875,0.9998779296875,-0.35888671875,0.2392578125,8.25439453125,1,1.0,1.0,1.0,1.0,50.00
2022-11-23 20:16:23.163,0.041916776,0.17645188,0.24038112,0.43467695,0.40434662,-0.0030182332,0.11378311,0.2731096,0.26264057,0.2470709,0.49941072,0.66457635,-0.019709485,-0.1636652,-0.20819294,0.21089633,-0.30228335,-0.5877752,-0.46653476,-0.06425165,779.2674,803.0403,793.7729,783.69965,580.2198,-0.19464111328125,-0.01483154296875,0.9998779296875,-0.35888671875,0.2392578125,8.25439453125,1,1.0,1.0,1.0,1.0,50.00
2022-11-23 20:16:23.163,0.041916776,0.17645188,0.24038112,0.43467695,0.40434662,-0.0030182332,0.11378311,0.2731096,0.26264057,0.2470709,0.49941072,0.66457635,-0.019709485,-0.1636652,-0.20819294,0.21089633,-0.30228335,-0.5877752,-0.46653476,-0.06425165,827.619,807.0696,794.17584,822.7839,912.23444,-0.19464111328125,-0.01483154296875,0.9998779296875,-0.35888671875,0.2392578125,8.25439453125,1,1.0,1.0,1.0,1.0,50.00
2022-11-23 20:16:23,,,,,,,,,,,,,,,,,,,,,,,,,,,,,,,,,,,,,,/muse/elements/blink
2022-11-23 20:16:23.164,7.774122E-4,0.37610796,0.5266329,0.42951542,0.39822948,0.18183114,0.3639079,0.25076222,0.2515885,0.48632717,0.731739,0.64934784,-0.02355038,-0.14614505,-0.1907873,0.20348644,-0.30784273,-0.6126567,-0.47165143,-0.07746959,832.8571,811.0989,792.5641,817.5458,1027.8755,-0.19464111328125,-0.01483154296875,0.9998779296875,-0.35888671875,0.2392578125,8.25439453125,1,1.0,1.0,1.0,1.0,50.00
2022-11-23 20:16:23.165,7.774122E-4,0.37610796,0.5266329,0.42951542,0.39822948,0.18183114,0.3639079,0.25076222,0.2515885,0.48632717,0.731739,0.64934784,-0.02355038,-0.14614505,-0.1907873,0.20348644,-0.30784273,-0.6126567,-0.47165143,-0.07746959,785.7143,811.0989,788.1319,781.28204,791.75824,-0.19464111328125,-0.01483154296875,0.9998779296875,-0.35888671875,0.2392578125,8.25439453125,1,1.0,1.0,1.0,1.0,50.00
2022-11-23 20:16:23.165,7.774122E-4,0.37610796,0.5266329,0.42951542,0.39822948,0.18183114,0.3639079,0.25076222,0.2515885,0.48632717,0.731739,0.64934784,-0.02355038,-0.14614505,-0.1907873,0.20348644,-0.30784273,-0.6126567,-0.47165143,-0.07746959,780.4762,809.4872,794.17584,784.5055,643.0769,-0.19464111328125,-0.01483154296875,0.9998779296875,-0.35888671875,0.2392578125,8.25439453125,1,1.0,1.0,1.0,1.0,50.00
2022-11-23 20:16:23.165,7.774122E-4,0.37610796,0.5266329,0.42951542,0.39822948,0.18183114,0.3639079,0.25076222,0.2515885,0.48632717,0.731739,0.64934784,-0.02355038,-0.14614505,-0.1907873,0.20348644,-0.30784273,-0.6126567,-0.47165143,-0.07746959,834.87177,813.91943,805.4579,826.0073,911.8315,-0.19464111328125,-0.01483154296875,0.9998779296875,-0.35888671875,0.2392578125,8.25439453125,1,1.0,1.0,1.0,1.0,50.00
2022-11-23 20:16:23.166,7.774122E-4,0.37610796,0.5266329,0.42951542,0.39822948,0.18183114,0.3639079,0.25076222,0.2515885,0.48632717,0.731739,0.64934784,-0.02355038,-0.14614505,-0.1907873,0.20348644,-0.30784273,-0.6126567,-0.47165143,-0.07746959,852.1978,814.7253,803.0403,835.2747,1143.9194,-0.19464111328125,-0.01483154296875,0.9998779296875,-0.35888671875,0.2392578125,8.25439453125,1,1.0,1.0,1.0,1.0,50.00
2022-11-23 20:16:23.166,7.774122E-4,0.37610796,0.5266329,0.42951542,0.39822948,0.18183114,0.3639079,0.25076222,0.2515885,0.48632717,0.731739,0.64934784,-0.02355038,-0.14614505,-0.1907873,0.20348644,-0.30784273,-0.6126567,-0.47165143,-0.07746959,799.81683,807.0696,803.8461,799.81683,826.0073,-0.19464111328125,-0.01483154296875,0.9998779296875,-0.35888671875,0.2392578125,8.25439453125,1,1.0,1.0,1.0,1.0,50.00
2022-11-23 20:16:23.166,7.774122E-4,0.37610796,0.5266329,0.42951542,0.39822948,0.18183114,0.3639079,0.25076222,0.2515885,0.48632717,0.731739,0.64934784,-0.02355038,-0.14614505,-0.1907873,0.20348644,-0.30784273,-0.6126567,-0.47165143,-0.07746959,774.83514,811.50183,807.8755,783.69965,635.42126,-0.19464111328125,-0.01483154296875,0.9998779296875,-0.35888671875,0.2392578125,8.25439453125,1,1.0,1.0,1.0,1.0,50.00
2022-11-23 20:16:23.216,7.774122E-4,0.37610796,0.5266329,0.42951542,0.39822948,0.18183114,0.3639079,0.25076222,0.2515885,0.48632717,0.731739,0.64934784,-0.02355038,-0.14614505,-0.1907873,0.20348644,-0.30784273,-0.6126567,-0.47165143,-0.07746959,813.91943,812.71063,804.2491,806.6667,742.6007,-0.21478271484375,-0.01922607421875,1.003173828125,-0.411224365234375,0.11962890625,5.63751220703125,1,1.0,1.0,1.0,1.0,50.00
2022-11-23 20:16:23.216,7.774122E-4,0.37610796,0.5266329,0.42951542,0.39822948,0.18183114,0.3639079,0.25076222,0.2515885,0.48632717,0.731739,0.64934784,-0.02355038,-0.14614505,-0.1907873,0.20348644,-0.30784273,-0.6126567,-0.47165143,-0.07746959,846.9597,810.696,801.8315,837.28937,902.1612,-0.21478271484375,-0.01922607421875,1.003173828125,-0.411224365234375,0.11962890625,5.63751220703125,1,1.0,1.0,1.0,1.0,50.00
2022-11-23 20:16:23.216,7.774122E-4,0.37610796,0.5266329,0.42951542,0.39822948,0.18183114,0.3639079,0.25076222,0.2515885,0.48632717,0.731739,0.64934784,-0.02355038,-0.14614505,-0.1907873,0.20348644,-0.30784273,-0.6126567,-0.47165143,-0.07746959,792.5641,814.3223,805.05493,818.7546,821.1722,-0.21478271484375,-0.01922607421875,1.003173828125,-0.411224365234375,0.11962890625,5.63751220703125,1,1.0,1.0,1.0,1.0,50.00
2022-11-23 20:16:23.217,7.774122E-4,0.37610796,0.5266329,0.42951542,0.39822948,0.18183114,0.3639079,0.25076222,0.2515885,0.48632717,0.731739,0.64934784,-0.02355038,-0.14614505,-0.1907873,0.20348644,-0.30784273,-0.6126567,-0.47165143,-0.07746959,753.47986,813.91943,808.2784,785.31134,637.4359,-0.21478271484375,-0.01922607421875,1.003173828125,-0.411224365234375,0.11962890625,5.63751220703125,1,1.0,1.0,1.0,1.0,50.00
2022-11-23 20:16:23.217,7.774122E-4,0.37610796,0.5266329,0.42951542,0.39822948,0.18183114,0.3639079,0.25076222,0.2515885,0.48632717,0.731739,0.64934784,-0.02355038,-0.14614505,-0.1907873,0.20348644,-0.30784273,-0.6126567,-0.47165143,-0.07746959,808.68134,811.50183,807.0696,807.8755,721.6484,-0.21478271484375,-0.01922607421875,1.003173828125,-0.411224365234375,0.11962890625,5.63751220703125,1,1.0,1.0,1.0,1.0,50.00
2022-11-23 20:16:23.217,7.774122E-4,0.37610796,0.5266329,0.42951542,0.39822948,0.18183114,0.3639079,0.25076222,0.2515885,0.48632717,0.731739,0.64934784,-0.02355038,-0.14614505,-0.1907873,0.20348644,-0.30784273,-0.6126567,-0.47165143,-0.07746959,848.1685,812.3077,807.0696,838.9011,972.674,-0.21478271484375,-0.01922607421875,1.003173828125,-0.411224365234375,0.11962890625,5.63751220703125,1,1.0,1.0,1.0,1.0,50.00
2022-11-23 20:16:23.217,7.774122E-4,0.37610796,0.5266329,0.42951542,0.39822948,0.18183114,0.3639079,0.25076222,0.2515885,0.48632717,0.731739,0.64934784,-0.02355038,-0.14614505,-0.1907873,0.20348644,-0.30784273,-0.6126567,-0.47165143,-0.07746959,822.7839,812.3077,805.8608,815.12823,917.8755,-0.21478271484375,-0.01922607421875,1.003173828125,-0.411224365234375,0.11962890625,5.63751220703125,1,1.0,1.0,1.0,1.0,50.00
2022-11-23 20:16:23.218,7.774122E-4,0.37610796,0.5266329,0.42951542,0.39822948,0.18183114,0.3639079,0.25076222,0.2515885,0.48632717,0.731739,0.64934784,-0.02355038,-0.14614505,-0.1907873,0.20348644,-0.30784273,-0.6126567,-0.47165143,-0.07746959,780.4762,807.47253,799.81683,783.69965,688.60803,-0.21478271484375,-0.01922607421875,1.003173828125,-0.411224365234375,0.11962890625,5.63751220703125,1,1.0,1.0,1.0,1.0,50.00
2022-11-23 20:16:23.218,7.774122E-4,0.37610796,0.5266329,0.42951542,0.39822948,0.18183114,0.3639079,0.25076222,0.2515885,0.48632717,0.731739,0.64934784,-0.02355038,-0.14614505,-0.1907873,0.20348644,-0.30784273,-0.6126567,-0.47165143,-0.07746959,788.5348,806.6667,796.99634,799.011,944.4689,-0.21478271484375,-0.01922607421875,1.003173828125,-0.411224365234375,0.11962890625,5.63751220703125,1,1.0,1.0,1.0,1.0,50.00
2022-11-23 20:16:23.218,7.774122E-4,0.37610796,0.5266329,0.42951542,0.39822948,0.18183114,0.3639079,0.25076222,0.2515885,0.48632717,0.731739,0.64934784,-0.02355038,-0.14614505,-0.1907873,0.20348644,-0.30784273,-0.6126567,-0.47165143,-0.07746959,830.4396,808.2784,803.0403,825.2015,1145.5311,-0.21478271484375,-0.01922607421875,1.003173828125,-0.411224365234375,0.11962890625,5.63751220703125,1,1.0,1.0,1.0,1.0,50.00
2022-11-23 20:16:23.218,7.774122E-4,0.37610796,0.5266329,0.42951542,0.39822948,0.18183114,0.3639079,0.25076222,0.2515885,0.48632717,0.731739,0.64934784,-0.02355038,-0.14614505,-0.1907873,0.20348644,-0.30784273,-0.6126567,-0.47165143,-0.07746959,828.8278,806.26373,806.6667,818.7546,870.7326,-0.21478271484375,-0.01922607421875,1.003173828125,-0.411224365234375,0.11962890625,5.63751220703125,1,1.0,1.0,1.0,1.0,50.00
2022-11-23 20:16:23.219,7.774122E-4,0.37610796,0.5266329,0.42951542,0.39822948,0.18183114,0.3639079,0.25076222,0.2515885,0.48632717,0.731739,0.64934784,-0.02355038,-0.14614505,-0.1907873,0.20348644,-0.30784273,-0.6126567,-0.47165143,-0.07746959,789.7436,813.5165,803.8461,786.9231,716.4103,-0.21478271484375,-0.01922607421875,1.003173828125,-0.411224365234375,0.11962890625,5.63751220703125,1,1.0,1.0,1.0,1.0,50.00
2022-11-23 20:16:23.266,7.774122E-4,0.37610796,0.5266329,0.42951542,0.39822948,0.18183114,0.3639079,0.25076222,0.2515885,0.48632717,0.731739,0.64934784,-0.02355038,-0.14614505,-0.1907873,0.20348644,-0.30784273,-0.6126567,-0.47165143,-0.07746959,787.326,821.978,803.0403,775.64105,631.79486,-0.21923828125,-0.0257568359375,0.98321533203125,0.740203857421875,0.590667724609375,3.18511962890625,1,1.0,1.0,1.0,1.0,50.00
2022-11-23 20:16:23.266,7.774122E-4,0.37610796,0.5266329,0.42951542,0.39822948,0.18183114,0.3639079,0.25076222,0.2515885,0.48632717,0.731739,0.64934784,-0.02355038,-0.14614505,-0.1907873,0.20348644,-0.30784273,-0.6126567,-0.47165143,-0.07746959,814.7253,818.3516,800.2198,801.8315,722.4542,-0.21923828125,-0.0257568359375,0.98321533203125,0.740203857421875,0.590667724609375,3.18511962890625,1,1.0,1.0,1.0,1.0,50.00
2022-11-23 20:16:23.267,7.774122E-4,0.37610796,0.5266329,0.42951542,0.39822948,0.18183114,0.3639079,0.25076222,0.2515885,0.48632717,0.731739,0.64934784,-0.02355038,-0.14614505,-0.1907873,0.20348644,-0.30784273,-0.6126567,-0.47165143,-0.07746959,836.8865,813.91943,797.8022,813.91943,808.2784,-0.21923828125,-0.0257568359375,0.98321533203125,0.740203857421875,0.590667724609375,3.18511962890625,1,1.0,1.0,1.0,1.0,50.00
2022-11-23 20:16:23.267,7.774122E-4,0.37610796,0.5266329,0.42951542,0.39822948,0.18183114,0.3639079,0.25076222,0.2515885,0.48632717,0.731739,0.64934784,-0.02355038,-0.14614505,-0.1907873,0.20348644,-0.30784273,-0.6126567,-0.47165143,-0.07746959,798.60803,812.71063,796.5934,777.6557,717.619,-0.21923828125,-0.0257568359375,0.98321533203125,0.740203857421875,0.590667724609375,3.18511962890625,1,1.0,1.0,1.0,1.0,50.00
2022-11-23 20:16:23.267,7.774122E-4,0.37610796,0.5266329,0.42951542,0.39822948,0.18183114,0.3639079,0.25076222,0.2515885,0.48632717,0.731739,0.64934784,-0.02355038,-0.14614505,-0.1907873,0.20348644,-0.30784273,-0.6126567,-0.47165143,-0.07746959,767.1795,805.4579,794.9817,764.7619,592.71063,-0.21923828125,-0.0257568359375,0.98321533203125,0.740203857421875,0.590667724609375,3.18511962890625,1,1.0,1.0,1.0,1.0,50.00
2022-11-23 20:16:23.267,7.774122E-4,0.37610796,0.5266329,0.42951542,0.39822948,0.18183114,0.3639079,0.25076222,0.2515885,0.48632717,0.731739,0.64934784,-0.02355038,-0.14614505,-0.1907873,0.20348644,-0.30784273,-0.6126567,-0.47165143,-0.07746959,815.5311,802.6374,793.7729,799.41394,728.49817,-0.21923828125,-0.0257568359375,0.98321533203125,0.740203857421875,0.590667724609375,3.18511962890625,1,1.0,1.0,1.0,1.0,50.00
2022-11-23 20:16:23.268,7.774122E-4,0.37610796,0.5266329,0.42951542,0.39822948,0.18183114,0.3639079,0.25076222,0.2515885,0.48632717,0.731739,0.64934784,-0.02355038,-0.14614505,-0.1907873,0.20348644,-0.30784273,-0.6126567,-0.47165143,-0.07746959,842.52747,804.65204,795.78754,808.2784,858.24176,-0.21923828125,-0.0257568359375,0.98321533203125,0.740203857421875,0.590667724609375,3.18511962890625,1,1.0,1.0,1.0,1.0,50.00
2022-11-23 20:16:23.268,-0.02065228,0.6152786,0.8319996,0.43318298,0.39501148,0.3990758,0.61422056,0.21235158,0.23874232,0.60545,0.8825718,0.58095235,-0.02442959,-0.12881376,-0.16585259,0.19077304,-0.32597136,-0.6337706,-0.47797346,-0.10657575,811.0989,805.05493,797.3993,779.67035,900.14655,-0.21923828125,-0.0257568359375,0.98321533203125,0.740203857421875,0.590667724609375,3.18511962890625,1,1.0,1.0,1.0,1.0,50.00
2022-11-23 20:16:23.269,-0.02065228,0.6152786,0.8319996,0.43318298,0.39501148,0.3990758,0.61422056,0.21235158,0.23874232,0.60545,0.8825718,0.58095235,-0.02442959,-0.12881376,-0.16585259,0.19077304,-0.32597136,-0.6337706,-0.47797346,-0.10657575,776.04395,801.4286,799.011,769.59705,866.30035,-0.21923828125,-0.0257568359375,0.98321533203125,0.740203857421875,0.590667724609375,3.18511962890625,1,1.0,1.0,1.0,1.0,50.00
2022-11-23 20:16:23.269,-0.02065228,0.6152786,0.8319996,0.43318298,0.39501148,0.3990758,0.61422056,0.21235158,0.23874232,0.60545,0.8825718,0.58095235,-0.02442959,-0.12881376,-0.16585259,0.19077304,-0.32597136,-0.6337706,-0.47797346,-0.10657575,799.41394,799.81683,799.41394,781.28204,747.03296,-0.21923828125,-0.0257568359375,0.98321533203125,0.740203857421875,0.590667724609375,3.18511962890625,1,1.0,1.0,1.0,1.0,50.00
2022-11-23 20:16:23.270,-0.02065228,0.6152786,0.8319996,0.43318298,0.39501148,0.3990758,0.61422056,0.21235158,0.23874232,0.60545,0.8825718,0.58095235,-0.02442959,-0.12881376,-0.16585259,0.19077304,-0.32597136,-0.6337706,-0.47797346,-0.10657575,844.1392,803.44324,796.5934,807.0696,855.82416,-0.21923828125,-0.0257568359375,0.98321533203125,0.740203857421875,0.590667724609375,3.18511962890625,1,1.0,1.0,1.0,1.0,50.00
2022-11-23 20:16:23.270,-0.02065228,0.6152786,0.8319996,0.43318298,0.39501148,0.3990758,0.61422056,0.21235158,0.23874232,0.60545,0.8825718,0.58095235,-0.02442959,-0.12881376,-0.16585259,0.19077304,-0.32597136,-0.6337706,-0.47797346,-0.10657575,822.381,805.8608,798.20514,801.4286,919.89014,-0.21923828125,-0.0257568359375,0.98321533203125,0.740203857421875,0.590667724609375,3.18511962890625,1,1.0,1.0,1.0,1.0,50.00
2022-11-23 20:16:23.295,-0.02065228,0.6152786,0.8319996,0.43318298,0.39501148,0.3990758,0.61422056,0.21235158,0.23874232,0.60545,0.8825718,0.58095235,-0.02442959,-0.12881376,-0.16585259,0.19077304,-0.32597136,-0.6337706,-0.47797346,-0.10657575,775.2381,807.0696,800.6227,770.0,792.1612,-0.22900390625,-0.03521728515625,0.98736572265625,4.366455078125,-0.964508056640625,0.560760498046875,1,1.0,1.0,1.0,1.0,50.00
2022-11-23 20:16:23.295,-0.02065228,0.6152786,0.8319996,0.43318298,0.39501148,0.3990758,0.61422056,0.21235158,0.23874232,0.60545,0.8825718,0.58095235,-0.02442959,-0.12881376,-0.16585259,0.19077304,-0.32597136,-0.6337706,-0.47797346,-0.10657575,779.67035,810.293,798.20514,773.22345,692.23444,-0.22900390625,-0.03521728515625,0.98736572265625,4.366455078125,-0.964508056640625,0.560760498046875,1,1.0,1.0,1.0,1.0,50.00
2022-11-23 20:16:23.296,-0.02065228,0.6152786,0.8319996,0.43318298,0.39501148,0.3990758,0.61422056,0.21235158,0.23874232,0.60545,0.8825718,0.58095235,-0.02442959,-0.12881376,-0.16585259,0.19077304,-0.32597136,-0.6337706,-0.47797346,-0.10657575,807.8755,808.68134,799.011,803.0403,803.44324,-0.22900390625,-0.03521728515625,0.98736572265625,4.366455078125,-0.964508056640625,0.560760498046875,1,1.0,1.0,1.0,1.0,50.00
2022-11-23 20:16:23.296,-0.02065228,0.6152786,0.8319996,0.43318298,0.39501148,0.3990758,0.61422056,0.21235158,0.23874232,0.60545,0.8825718,0.58095235,-0.02442959,-0.12881376,-0.16585259,0.19077304,-0.32597136,-0.6337706,-0.47797346,-0.10657575,835.6777,805.4579,805.8608,823.9927,881.2088,-0.22900390625,-0.03521728515625,0.98736572265625,4.366455078125,-0.964508056640625,0.560760498046875,1,1.0,1.0,1.0,1.0,50.00
2022-11-23 20:16:23.296,-0.02065228,0.6152786,0.8319996,0.43318298,0.39501148,0.3990758,0.61422056,0.21235158,0.23874232,0.60545,0.8825718,0.58095235,-0.02442959,-0.12881376,-0.16585259,0.19077304,-0.32597136,-0.6337706,-0.47797346,-0.10657575,812.71063,808.2784,802.23444,796.99634,752.674,-0.22900390625,-0.03521728515625,0.98736572265625,4.366455078125,-0.964508056640625,0.560760498046875,1,1.0,1.0,1.0,1.0,50.00
2022-11-23 20:16:23.296,-0.02065228,0.6152786,0.8319996,0.43318298,0.39501148,0.3990758,0.61422056,0.21235158,0.23874232,0.60545,0.8825718,0.58095235,-0.02442959,-0.12881376,-0.16585259,0.19077304,-0.32597136,-0.6337706,-0.47797346,-0.10657575,771.2088,809.0842,798.60803,761.13556,711.5751,-0.22900390625,-0.03521728515625,0.98736572265625,4.366455078125,-0.964508056640625,0.560760498046875,1,1.0,1.0,1.0,1.0,50.00
2022-11-23 20:16:23.297,-0.02065228,0.6152786,0.8319996,0.43318298,0.39501148,0.3990758,0.61422056,0.21235158,0.23874232,0.60545,0.8825718,0.58095235,-0.02442959,-0.12881376,-0.16585259,0.19077304,-0.32597136,-0.6337706,-0.47797346,-0.10657575,812.71063,808.2784,801.4286,797.3993,896.52014,-0.22900390625,-0.03521728515625,0.98736572265625,4.366455078125,-0.964508056640625,0.560760498046875,1,1.0,1.0,1.0,1.0,50.00
2022-11-23 20:16:23.297,-0.02065228,0.6152786,0.8319996,0.43318298,0.39501148,0.3990758,0.61422056,0.21235158,0.23874232,0.60545,0.8825718,0.58095235,-0.02442959,-0.12881376,-0.16585259,0.19077304,-0.32597136,-0.6337706,-0.47797346,-0.10657575,842.9304,811.0989,803.0403,836.4835,1204.359,-0.22900390625,-0.03521728515625,0.98736572265625,4.366455078125,-0.964508056640625,0.560760498046875,1,1.0,1.0,1.0,1.0,50.00
2022-11-23 20:16:23.297,-0.02065228,0.6152786,0.8319996,0.43318298,0.39501148,0.3990758,0.61422056,0.21235158,0.23874232,0.60545,0.8825718,0.58095235,-0.02442959,-0.12881376,-0.16585259,0.19077304,-0.32597136,-0.6337706,-0.47797346,-0.10657575,807.0696,810.293,805.4579,798.20514,998.46155,-0.22900390625,-0.03521728515625,0.98736572265625,4.366455078125,-0.964508056640625,0.560760498046875,1,1.0,1.0,1.0,1.0,50.00
2022-11-23 20:16:23.297,-0.02065228,0.6152786,0.8319996,0.43318298,0.39501148,0.3990758,0.61422056,0.21235158,0.23874232,0.60545,0.8825718,0.58095235,-0.02442959,-0.12881376,-0.16585259,0.19077304,-0.32597136,-0.6337706,-0.47797346,-0.10657575,745.0183,805.4579,802.6374,768.3883,623.73627,-0.22900390625,-0.03521728515625,0.98736572265625,4.366455078125,-0.964508056640625,0.560760498046875,1,1.0,1.0,1.0,1.0,50.00
2022-11-23 20:16:23.297,-0.02065228,0.6152786,0.8319996,0.43318298,0.39501148,0.3990758,0.61422056,0.21235158,0.23874232,0.60545,0.8825718,0.58095235,-0.02442959,-0.12881376,-0.16585259,0.19077304,-0.32597136,-0.6337706,-0.47797346,-0.10657575,791.75824,806.6667,799.41394,795.38464,734.94507,-0.22900390625,-0.03521728515625,0.98736572265625,4.366455078125,-0.964508056640625,0.560760498046875,1,1.0,1.0,1.0,1.0,50.00
2022-11-23 20:16:23.298,-0.02065228,0.6152786,0.8319996,0.43318298,0.39501148,0.3990758,0.61422056,0.21235158,0.23874232,0.60545,0.8825718,0.58095235,-0.02442959,-0.12881376,-0.16585259,0.19077304,-0.32597136,-0.6337706,-0.47797346,-0.10657575,861.4652,810.293,801.8315,805.4579,854.61536,-0.22900390625,-0.03521728515625,0.98736572265625,4.366455078125,-0.964508056640625,0.560760498046875,1,1.0,1.0,1.0,1.0,50.00
2022-11-23 20:16:23.342,-0.02065228,0.6152786,0.8319996,0.43318298,0.39501148,0.3990758,0.61422056,0.21235158,0.23874232,0.60545,0.8825718,0.58095235,-0.02442959,-0.12881376,-0.16585259,0.19077304,-0.32597136,-0.6337706,-0.47797346,-0.10657575,795.78754,813.5165,802.6374,779.2674,830.84247,-0.18988037109375,-0.01751708984375,1.0040283203125,5.682373046875,-5.031890869140625,-1.278533935546875,1,1.0,1.0,1.0,1.0,50.00
2022-11-23 20:16:23.342,-0.02065228,0.6152786,0.8319996,0.43318298,0.39501148,0.3990758,0.61422056,0.21235158,0.23874232,0.60545,0.8825718,0.58095235,-0.02442959,-0.12881376,-0.16585259,0.19077304,-0.32597136,-0.6337706,-0.47797346,-0.10657575,784.5055,808.68134,805.8608,781.685,631.79486,-0.18988037109375,-0.01751708984375,1.0040283203125,5.682373046875,-5.031890869140625,-1.278533935546875,1,1.0,1.0,1.0,1.0,50.00
2022-11-23 20:16:23.342,-0.02065228,0.6152786,0.8319996,0.43318298,0.39501148,0.3990758,0.61422056,0.21235158,0.23874232,0.60545,0.8825718,0.58095235,-0.02442959,-0.12881376,-0.16585259,0.19077304,-0.32597136,-0.6337706,-0.47797346,-0.10657575,817.1429,803.44324,806.26373,807.0696,681.75824,-0.18988037109375,-0.01751708984375,1.0040283203125,5.682373046875,-5.031890869140625,-1.278533935546875,1,1.0,1.0,1.0,1.0,50.00
2022-11-23 20:16:23.343,-0.02065228,0.6152786,0.8319996,0.43318298,0.39501148,0.3990758,0.61422056,0.21235158,0.23874232,0.60545,0.8825718,0.58095235,-0.02442959,-0.12881376,-0.16585259,0.19077304,-0.32597136,-0.6337706,-0.47797346,-0.10657575,846.55676,803.8461,803.8461,828.4249,927.5458,-0.18988037109375,-0.01751708984375,1.0040283203125,5.682373046875,-5.031890869140625,-1.278533935546875,1,1.0,1.0,1.0,1.0,50.00
2022-11-23 20:16:23.343,-0.02065228,0.6152786,0.8319996,0.43318298,0.39501148,0.3990758,0.61422056,0.21235158,0.23874232,0.60545,0.8825718,0.58095235,-0.02442959,-0.12881376,-0.16585259,0.19077304,-0.32597136,-0.6337706,-0.47797346,-0.10657575,844.1392,807.8755,809.0842,826.8132,876.77655,-0.18988037109375,-0.01751708984375,1.0040283203125,5.682373046875,-5.031890869140625,-1.278533935546875,1,1.0,1.0,1.0,1.0,50.00
2022-11-23 20:16:23.343,-0.02065228,0.6152786,0.8319996,0.43318298,0.39501148,0.3990758,0.61422056,0.21235158,0.23874232,0.60545,0.8825718,0.58095235,-0.02442959,-0.12881376,-0.16585259,0.19077304,-0.32597136,-0.6337706,-0.47797346,-0.10657575,792.1612,808.68134,812.3077,797.8022,712.7839,-0.18988037109375,-0.01751708984375,1.0040283203125,5.682373046875,-5.031890869140625,-1.278533935546875,1,1.0,1.0,1.0,1.0,50.00
2022-11-23 20:16:23.343,-0.02065228,0.6152786,0.8319996,0.43318298,0.39501148,0.3990758,0.61422056,0.21235158,0.23874232,0.60545,0.8825718,0.58095235,-0.02442959,-0.12881376,-0.16585259,0.19077304,-0.32597136,-0.6337706,-0.47797346,-0.10657575,777.6557,807.47253,807.0696,778.46155,844.5421,-0.18988037109375,-0.01751708984375,1.0040283203125,5.682373046875,-5.031890869140625,-1.278533935546875,1,1.0,1.0,1.0,1.0,50.00
2022-11-23 20:16:23.344,-0.02065228,0.6152786,0.8319996,0.43318298,0.39501148,0.3990758,0.61422056,0.21235158,0.23874232,0.60545,0.8825718,0.58095235,-0.02442959,-0.12881376,-0.16585259,0.19077304,-0.32597136,-0.6337706,-0.47797346,-0.10657575,825.6044,806.26373,808.2784,813.1135,1095.9707,-0.18988037109375,-0.01751708984375,1.0040283203125,5.682373046875,-5.031890869140625,-1.278533935546875,1,1.0,1.0,1.0,1.0,50.00
2022-11-23 20:16:23.344,-0.02065228,0.6152786,0.8319996,0.43318298,0.39501148,0.3990758,0.61422056,0.21235158,0.23874232,0.60545,0.8825718,0.58095235,-0.02442959,-0.12881376,-0.16585259,0.19077304,-0.32597136,-0.6337706,-0.47797346,-0.10657575,828.022,811.0989,805.05493,824.7985,956.9597,-0.18988037109375,-0.01751708984375,1.0040283203125,5.682373046875,-5.031890869140625,-1.278533935546875,1,1.0,1.0,1.0,1.0,50.00
2022-11-23 20:16:23.344,-0.024692433,0.8179952,0.8584905,0.4477644,0.3976384,0.57533675,0.63708,0.15287656,0.23769423,0.6065684,0.8825718,0.44938493,-0.021808038,-0.109724335,-0.1627833,0.16895296,-0.3619572,-0.6473787,-0.49238396,-0.1575958,775.64105,809.4872,799.41394,786.52014,743.8095,-0.18988037109375,-0.01751708984375,1.0040283203125,5.682373046875,-5.031890869140625,-1.278533935546875,1,1.0,1.0,1.0,1.0,50.00
2022-11-23 20:16:23.345,-0.024692433,0.8179952,0.8584905,0.4477644,0.3976384,0.57533675,0.63708,0.15287656,0.23769423,0.6065684,0.8825718,0.44938493,-0.021808038,-0.109724335,-0.1627833,0.16895296,-0.3619572,-0.6473787,-0.49238396,-0.1575958,757.9121,806.6667,803.8461,772.4176,647.9121,-0.18988037109375,-0.01751708984375,1.0040283203125,5.682373046875,-5.031890869140625,-1.278533935546875,1,1.0,1.0,1.0,1.0,50.00
2022-11-23 20:16:23.345,-0.024692433,0.8179952,0.8584905,0.4477644,0.3976384,0.57533675,0.63708,0.15287656,0.23769423,0.6065684,0.8825718,0.44938493,-0.021808038,-0.109724335,-0.1627833,0.16895296,-0.3619572,-0.6473787,-0.49238396,-0.1575958,809.89014,811.50183,803.8461,807.8755,784.10254,-0.18988037109375,-0.01751708984375,1.0040283203125,5.682373046875,-5.031890869140625,-1.278533935546875,1,1.0,1.0,1.0,1.0,50.00
2022-11-23 20:16:23.424,-0.024692433,0.8179952,0.8584905,0.4477644,0.3976384,0.57533675,0.63708,0.15287656,0.23769423,0.6065684,0.8825718,0.44938493,-0.021808038,-0.109724335,-0.1627833,0.16895296,-0.3619572,-0.6473787,-0.49238396,-0.1575958,847.76556,809.0842,803.44324,823.1868,925.5311,-0.18988037109375,-0.01751708984375,1.0040283203125,5.682373046875,-5.031890869140625,-1.278533935546875,1,1.0,1.0,1.0,1.0,50.00
2022-11-23 20:16:23.425,-0.024692433,0.8179952,0.8584905,0.4477644,0.3976384,0.57533675,0.63708,0.15287656,0.23769423,0.6065684,0.8825718,0.44938493,-0.021808038,-0.109724335,-0.1627833,0.16895296,-0.3619572,-0.6473787,-0.49238396,-0.1575958,803.44324,802.23444,804.2491,801.4286,778.46155,-0.18988037109375,-0.01751708984375,1.0040283203125,5.682373046875,-5.031890869140625,-1.278533935546875,1,1.0,1.0,1.0,1.0,50.00
2022-11-23 20:16:23.425,-0.024692433,0.8179952,0.8584905,0.4477644,0.3976384,0.57533675,0.63708,0.15287656,0.23769423,0.6065684,0.8825718,0.44938493,-0.021808038,-0.109724335,-0.1627833,0.16895296,-0.3619572,-0.6473787,-0.49238396,-0.1575958,767.98535,807.47253,799.81683,771.6117,638.6447,-0.18988037109375,-0.01751708984375,1.0040283203125,5.682373046875,-5.031890869140625,-1.278533935546875,1,1.0,1.0,1.0,1.0,50.00
2022-11-23 20:16:23.425,-0.024692433,0.8179952,0.8584905,0.4477644,0.3976384,0.57533675,0.63708,0.15287656,0.23769423,0.6065684,0.8825718,0.44938493,-0.021808038,-0.109724335,-0.1627833,0.16895296,-0.3619572,-0.6473787,-0.49238396,-0.1575958,802.23444,811.0989,796.99634,797.3993,823.1868,-0.18988037109375,-0.01751708984375,1.0040283203125,5.682373046875,-5.031890869140625,-1.278533935546875,1,1.0,1.0,1.0,1.0,50.00
2022-11-23 20:16:23.425,-0.024692433,0.8179952,0.8584905,0.4477644,0.3976384,0.57533675,0.63708,0.15287656,0.23769423,0.6065684,0.8825718,0.44938493,-0.021808038,-0.109724335,-0.1627833,0.16895296,-0.3619572,-0.6473787,-0.49238396,-0.1575958,831.6484,807.0696,799.011,847.3626,946.8865,-0.18988037109375,-0.01751708984375,1.0040283203125,5.682373046875,-5.031890869140625,-1.278533935546875,1,1.0,1.0,1.0,1.0,50.00
2022-11-23 20:16:23.425,-0.024692433,0.8179952,0.8584905,0.4477644,0.3976384,0.57533675,0.63708,0.15287656,0.23769423,0.6065684,0.8825718,0.44938493,-0.021808038,-0.109724335,-0.1627833,0.16895296,-0.3619572,-0.6473787,-0.49238396,-0.1575958,811.50183,813.91943,803.8461,834.87177,880.80585,-0.18988037109375,-0.01751708984375,1.0040283203125,5.682373046875,-5.031890869140625,-1.278533935546875,1,1.0,1.0,1.0,1.0,50.00
2022-11-23 20:16:23.426,-0.024692433,0.8179952,0.8584905,0.4477644,0.3976384,0.57533675,0.63708,0.15287656,0.23769423,0.6065684,0.8825718,0.44938493,-0.021808038,-0.109724335,-0.1627833,0.16895296,-0.3619572,-0.6473787,-0.49238396,-0.1575958,780.87915,810.696,806.6667,803.8461,927.9487,-0.18988037109375,-0.01751708984375,1.0040283203125,5.682373046875,-5.031890869140625,-1.278533935546875,1,1.0,1.0,1.0,1.0,50.00
2022-11-23 20:16:23.426,-0.024692433,0.8179952,0.8584905,0.4477644,0.3976384,0.57533675,0.63708,0.15287656,0.23769423,0.6065684,0.8825718,0.44938493,-0.021808038,-0.109724335,-0.1627833,0.16895296,-0.3619572,-0.6473787,-0.49238396,-0.1575958,796.5934,810.696,813.1135,811.9048,929.15753,-0.18988037109375,-0.01751708984375,1.0040283203125,5.682373046875,-5.031890869140625,-1.278533935546875,1,1.0,1.0,1.0,1.0,50.00
2022-11-23 20:16:23.426,-0.024692433,0.8179952,0.8584905,0.4477644,0.3976384,0.57533675,0.63708,0.15287656,0.23769423,0.6065684,0.8825718,0.44938493,-0.021808038,-0.109724335,-0.1627833,0.16895296,-0.3619572,-0.6473787,-0.49238396,-0.1575958,844.94507,811.9048,811.0989,826.0073,828.8278,-0.18988037109375,-0.01751708984375,1.0040283203125,5.682373046875,-5.031890869140625,-1.278533935546875,1,1.0,1.0,1.0,1.0,50.00
2022-11-23 20:16:23.426,-0.024692433,0.8179952,0.8584905,0.4477644,0.3976384,0.57533675,0.63708,0.15287656,0.23769423,0.6065684,0.8825718,0.44938493,-0.021808038,-0.109724335,-0.1627833,0.16895296,-0.3619572,-0.6473787,-0.49238396,-0.1575958,829.2308,809.4872,804.65204,815.12823,836.08057,-0.18988037109375,-0.01751708984375,1.0040283203125,5.682373046875,-5.031890869140625,-1.278533935546875,1,1.0,1.0,1.0,1.0,50.00
2022-11-23 20:16:23.427,-0.024692433,0.8179952,0.8584905,0.4477644,0.3976384,0.57533675,0.63708,0.15287656,0.23769423,0.6065684,0.8825718,0.44938493,-0.021808038,-0.109724335,-0.1627833,0.16895296,-0.3619572,-0.6473787,-0.49238396,-0.1575958,788.93774,807.8755,810.696,793.7729,719.2308,-0.18988037109375,-0.01751708984375,1.0040283203125,5.682373046875,-5.031890869140625,-1.278533935546875,1,1.0,1.0,1.0,1.0,50.00
2022-11-23 20:16:23.427,-0.024692433,0.8179952,0.8584905,0.4477644,0.3976384,0.57533675,0.63708,0.15287656,0.23769423,0.6065684,0.8825718,0.44938493,-0.021808038,-0.109724335,-0.1627833,0.16895296,-0.3619572,-0.6473787,-0.49238396,-0.1575958,781.28204,805.05493,810.293,784.10254,643.8828,-0.18988037109375,-0.01751708984375,1.0040283203125,5.682373046875,-5.031890869140625,-1.278533935546875,1,1.0,1.0,1.0,1.0,50.00
2022-11-23 20:16:23.449,-0.024692433,0.8179952,0.8584905,0.4477644,0.3976384,0.57533675,0.63708,0.15287656,0.23769423,0.6065684,0.8825718,0.44938493,-0.021808038,-0.109724335,-0.1627833,0.16895296,-0.3619572,-0.6473787,-0.49238396,-0.1575958,821.1722,803.0403,804.2491,819.15753,733.73627,-0.181640625,-0.0146484375,1.00836181640625,4.583282470703125,-5.42816162109375,2.265472412109375,1,1.0,1.0,1.0,1.0,50.00
2022-11-23 20:16:23.449,-0.024692433,0.8179952,0.8584905,0.4477644,0.3976384,0.57533675,0.63708,0.15287656,0.23769423,0.6065684,0.8825718,0.44938493,-0.021808038,-0.109724335,-0.1627833,0.16895296,-0.3619572,-0.6473787,-0.49238396,-0.1575958,841.31866,802.6374,804.2491,828.4249,876.3736,-0.181640625,-0.0146484375,1.00836181640625,4.583282470703125,-5.42816162109375,2.265472412109375,1,1.0,1.0,1.0,1.0,50.00
2022-11-23 20:16:23.450,-0.024692433,0.8179952,0.8584905,0.4477644,0.3976384,0.57533675,0.63708,0.15287656,0.23769423,0.6065684,0.8825718,0.44938493,-0.021808038,-0.109724335,-0.1627833,0.16895296,-0.3619572,-0.6473787,-0.49238396,-0.1575958,797.3993,810.696,809.0842,796.5934,796.1905,-0.181640625,-0.0146484375,1.00836181640625,4.583282470703125,-5.42816162109375,2.265472412109375,1,1.0,1.0,1.0,1.0,50.00
2022-11-23 20:16:23.450,-0.024692433,0.8179952,0.8584905,0.4477644,0.3976384,0.57533675,0.63708,0.15287656,0.23769423,0.6065684,0.8825718,0.44938493,-0.021808038,-0.109724335,-0.1627833,0.16895296,-0.3619572,-0.6473787,-0.49238396,-0.1575958,763.5531,808.2784,811.9048,788.93774,589.89014,-0.181640625,-0.0146484375,1.00836181640625,4.583282470703125,-5.42816162109375,2.265472412109375,1,1.0,1.0,1.0,1.0,50.00
2022-11-23 20:16:23.450,-0.024692433,0.8179952,0.8584905,0.4477644,0.3976384,0.57533675,0.63708,0.15287656,0.23769423,0.6065684,0.8825718,0.44938493,-0.021808038,-0.109724335,-0.1627833,0.16895296,-0.3619572,-0.6473787,-0.49238396,-0.1575958,791.3553,805.8608,806.26373,812.3077,660.40295,-0.181640625,-0.0146484375,1.00836181640625,4.583282470703125,-5.42816162109375,2.265472412109375,1,1.0,1.0,1.0,1.0,50.00
2022-11-23 20:16:23.450,-0.024692433,0.8179952,0.8584905,0.4477644,0.3976384,0.57533675,0.63708,0.15287656,0.23769423,0.6065684,0.8825718,0.44938493,-0.021808038,-0.109724335,-0.1627833,0.16895296,-0.3619572,-0.6473787,-0.49238396,-0.1575958,840.5128,807.8755,808.2784,836.08057,1021.4286,-0.181640625,-0.0146484375,1.00836181640625,4.583282470703125,-5.42816162109375,2.265472412109375,1,1.0,1.0,1.0,1.0,50.00
2022-11-23 20:16:23.451,-0.024692433,0.8179952,0.8584905,0.4477644,0.3976384,0.57533675,0.63708,0.15287656,0.23769423,0.6065684,0.8825718,0.44938493,-0.021808038,-0.109724335,-0.1627833,0.16895296,-0.3619572,-0.6473787,-0.49238396,-0.1575958,806.26373,802.23444,809.0842,801.4286,972.674,-0.181640625,-0.0146484375,1.00836181640625,4.583282470703125,-5.42816162109375,2.265472412109375,1,1.0,1.0,1.0,1.0,50.00
2022-11-23 20:16:23.451,-0.024692433,0.8179952,0.8584905,0.4477644,0.3976384,0.57533675,0.63708,0.15287656,0.23769423,0.6065684,0.8825718,0.44938493,-0.021808038,-0.109724335,-0.1627833,0.16895296,-0.3619572,-0.6473787,-0.49238396,-0.1575958,770.40295,807.0696,801.8315,774.0293,650.7326,-0.181640625,-0.0146484375,1.00836181640625,4.583282470703125,-5.42816162109375,2.265472412109375,1,1.0,1.0,1.0,1.0,50.00
2022-11-23 20:16:23.451,-0.024692433,0.8179952,0.8584905,0.4477644,0.3976384,0.57533675,0.63708,0.15287656,0.23769423,0.6065684,0.8825718,0.44938493,-0.021808038,-0.109724335,-0.1627833,0.16895296,-0.3619572,-0.6473787,-0.49238396,-0.1575958,807.0696,814.3223,804.65204,801.4286,678.5348,-0.181640625,-0.0146484375,1.00836181640625,4.583282470703125,-5.42816162109375,2.265472412109375,1,1.0,1.0,1.0,1.0,50.00
2022-11-23 20:16:23.451,-0.024692433,0.8179952,0.8584905,0.4477644,0.3976384,0.57533675,0.63708,0.15287656,0.23769423,0.6065684,0.8825718,0.44938493,-0.021808038,-0.109724335,-0.1627833,0.16895296,-0.3619572,-0.6473787,-0.49238396,-0.1575958,834.4689,810.293,805.05493,823.5897,960.989,-0.181640625,-0.0146484375,1.00836181640625,4.583282470703125,-5.42816162109375,2.265472412109375,1,1.0,1.0,1.0,1.0,50.00
2022-11-23 20:16:23.452,-0.024692433,0.8179952,0.8584905,0.4477644,0.3976384,0.57533675,0.63708,0.15287656,0.23769423,0.6065684,0.8825718,0.44938493,-0.021808038,-0.109724335,-0.1627833,0.16895296,-0.3619572,-0.6473787,-0.49238396,-0.1575958,810.696,810.293,799.81683,809.89014,1042.381,-0.181640625,-0.0146484375,1.00836181640625,4.583282470703125,-5.42816162109375,2.265472412109375,1,1.0,1.0,1.0,1.0,50.00
2022-11-23 20:16:23.452,-0.021132667,0.95697594,0.8871884,0.4699233,0.41267326,0.6895855,0.6630892,0.081408344,0.23769423,0.60057884,0.8784933,0.27913022,-0.01620833,-0.086812235,-0.15830941,0.13570271,-0.41385496,-0.64720976,-0.5183645,-0.22899173,764.7619,813.1135,802.6374,780.4762,685.38464,-0.181640625,-0.0146484375,1.00836181640625,4.583282470703125,-5.42816162109375,2.265472412109375,1,1.0,1.0,1.0,1.0,50.00
2022-11-23 20:16:23.503,-0.021132667,0.95697594,0.8871884,0.4699233,0.41267326,0.6895855,0.6630892,0.081408344,0.23769423,0.60057884,0.8784933,0.27913022,-0.01620833,-0.086812235,-0.15830941,0.13570271,-0.41385496,-0.64720976,-0.5183645,-0.22899173,771.6117,801.8315,803.8461,780.87915,623.73627,-0.18914794921875,-0.0106201171875,1.0003662109375,3.21502685546875,-2.534637451171875,2.0037841796875,1,1.0,1.0,1.0,1.0,50.00
2022-11-23 20:16:23.503,-0.021132667,0.95697594,0.8871884,0.4699233,0.41267326,0.6895855,0.6630892,0.081408344,0.23769423,0.60057884,0.8784933,0.27913022,-0.01620833,-0.086812235,-0.15830941,0.13570271,-0.41385496,-0.64720976,-0.5183645,-0.22899173,813.5165,800.2198,801.8315,816.7399,828.022,-0.18914794921875,-0.0106201171875,1.0003662109375,3.21502685546875,-2.534637451171875,2.0037841796875,1,1.0,1.0,1.0,1.0,50.00
2022-11-23 20:16:23.503,-0.021132667,0.95697594,0.8871884,0.4699233,0.41267326,0.6895855,0.6630892,0.081408344,0.23769423,0.60057884,0.8784933,0.27913022,-0.01620833,-0.086812235,-0.15830941,0.13570271,-0.41385496,-0.64720976,-0.5183645,-0.22899173,824.3956,805.8608,799.41394,833.2601,899.7436,-0.18914794921875,-0.0106201171875,1.0003662109375,3.21502685546875,-2.534637451171875,2.0037841796875,1,1.0,1.0,1.0,1.0,50.00
2022-11-23 20:16:23.504,-0.021132667,0.95697594,0.8871884,0.4699233,0.41267326,0.6895855,0.6630892,0.081408344,0.23769423,0.60057884,0.8784933,0.27913022,-0.01620833,-0.086812235,-0.15830941,0.13570271,-0.41385496,-0.64720976,-0.5183645,-0.22899173,781.28204,807.8755,799.41394,799.011,644.68866,-0.18914794921875,-0.0106201171875,1.0003662109375,3.21502685546875,-2.534637451171875,2.0037841796875,1,1.0,1.0,1.0,1.0,50.00
2022-11-23 20:16:23.504,-0.021132667,0.95697594,0.8871884,0.4699233,0.41267326,0.6895855,0.6630892,0.081408344,0.23769423,0.60057884,0.8784933,0.27913022,-0.01620833,-0.086812235,-0.15830941,0.13570271,-0.41385496,-0.64720976,-0.5183645,-0.22899173,767.98535,804.65204,802.23444,786.52014,589.89014,-0.18914794921875,-0.0106201171875,1.0003662109375,3.21502685546875,-2.534637451171875,2.0037841796875,1,1.0,1.0,1.0,1.0,50.00
2022-11-23 20:16:23.504,-0.021132667,0.95697594,0.8871884,0.4699233,0.41267326,0.6895855,0.6630892,0.081408344,0.23769423,0.60057884,0.8784933,0.27913022,-0.01620833,-0.086812235,-0.15830941,0.13570271,-0.41385496,-0.64720976,-0.5183645,-0.22899173,810.293,802.6374,802.6374,811.9048,857.03296,-0.18914794921875,-0.0106201171875,1.0003662109375,3.21502685546875,-2.534637451171875,2.0037841796875,1,1.0,1.0,1.0,1.0,50.00
2022-11-23 20:16:23.504,-0.021132667,0.95697594,0.8871884,0.4699233,0.41267326,0.6895855,0.6630892,0.081408344,0.23769423,0.60057884,0.8784933,0.27913022,-0.01620833,-0.086812235,-0.15830941,0.13570271,-0.41385496,-0.64720976,-0.5183645,-0.22899173,839.707,803.0403,801.4286,822.7839,1028.6813,-0.18914794921875,-0.0106201171875,1.0003662109375,3.21502685546875,-2.534637451171875,2.0037841796875,1,1.0,1.0,1.0,1.0,50.00
2022-11-23 20:16:23.504,-0.021132667,0.95697594,0.8871884,0.4699233,0.41267326,0.6895855,0.6630892,0.081408344,0.23769423,0.60057884,0.8784933,0.27913022,-0.01620833,-0.086812235,-0.15830941,0.13570271,-0.41385496,-0.64720976,-0.5183645,-0.22899173,803.8461,801.8315,801.8315,804.65204,905.38464,-0.18914794921875,-0.0106201171875,1.0003662109375,3.21502685546875,-2.534637451171875,2.0037841796875,1,1.0,1.0,1.0,1.0,50.00
2022-11-23 20:16:23.505,-0.021132667,0.95697594,0.8871884,0.4699233,0.41267326,0.6895855,0.6630892,0.081408344,0.23769423,0.60057884,0.8784933,0.27913022,-0.01620833,-0.086812235,-0.15830941,0.13570271,-0.41385496,-0.64720976,-0.5183645,-0.22899173,757.50916,809.4872,802.23444,776.04395,641.4652,-0.18914794921875,-0.0106201171875,1.0003662109375,3.21502685546875,-2.534637451171875,2.0037841796875,1,1.0,1.0,1.0,1.0,50.00
2022-11-23 20:16:23.505,-0.021132667,0.95697594,0.8871884,0.4699233,0.41267326,0.6895855,0.6630892,0.081408344,0.23769423,0.60057884,0.8784933,0.27913022,-0.01620833,-0.086812235,-0.15830941,0.13570271,-0.41385496,-0.64720976,-0.5183645,-0.22899173,788.93774,807.8755,803.44324,811.0989,930.7692,-0.18914794921875,-0.0106201171875,1.0003662109375,3.21502685546875,-2.534637451171875,2.0037841796875,1,1.0,1.0,1.0,1.0,50.00
2022-11-23 20:16:23.505,-0.021132667,0.95697594,0.8871884,0.4699233,0.41267326,0.6895855,0.6630892,0.081408344,0.23769423,0.60057884,0.8784933,0.27913022,-0.01620833,-0.086812235,-0.15830941,0.13570271,-0.41385496,-0.64720976,-0.5183645,-0.22899173,836.08057,797.3993,803.8461,840.9158,1060.9158,-0.18914794921875,-0.0106201171875,1.0003662109375,3.21502685546875,-2.534637451171875,2.0037841796875,1,1.0,1.0,1.0,1.0,50.00
2022-11-23 20:16:23.505,-0.021132667,0.95697594,0.8871884,0.4699233,0.41267326,0.6895855,0.6630892,0.081408344,0.23769423,0.60057884,0.8784933,0.27913022,-0.01620833,-0.086812235,-0.15830941,0.13570271,-0.41385496,-0.64720976,-0.5183645,-0.22899173,810.696,804.65204,804.2491,805.05493,789.7436,-0.18914794921875,-0.0106201171875,1.0003662109375,3.21502685546875,-2.534637451171875,2.0037841796875,1,1.0,1.0,1.0,1.0,50.00
2022-11-23 20:16:23.549,-0.021132667,0.95697594,0.8871884,0.4699233,0.41267326,0.6895855,0.6630892,0.081408344,0.23769423,0.60057884,0.8784933,0.27913022,-0.01620833,-0.086812235,-0.15830941,0.13570271,-0.41385496,-0.64720976,-0.5183645,-0.22899173,768.7912,809.0842,803.0403,782.8938,651.9414,-0.18560791015625,-0.0123291015625,1.01263427734375,3.461761474609375,-2.504730224609375,-0.04486083984375,1,1.0,1.0,1.0,1.0,50.00
2022-11-23 20:16:23.550,-0.021132667,0.95697594,0.8871884,0.4699233,0.41267326,0.6895855,0.6630892,0.081408344,0.23769423,0.60057884,0.8784933,0.27913022,-0.01620833,-0.086812235,-0.15830941,0.13570271,-0.41385496,-0.64720976,-0.5183645,-0.22899173,790.14655,807.8755,807.47253,804.65204,663.22345,-0.18560791015625,-0.0123291015625,1.01263427734375,3.461761474609375,-2.504730224609375,-0.04486083984375,1,1.0,1.0,1.0,1.0,50.00
2022-11-23 20:16:23.550,-0.021132667,0.95697594,0.8871884,0.4699233,0.41267326,0.6895855,0.6630892,0.081408344,0.23769423,0.60057884,0.8784933,0.27913022,-0.01620833,-0.086812235,-0.15830941,0.13570271,-0.41385496,-0.64720976,-0.5183645,-0.22899173,837.28937,809.0842,811.9048,843.73627,836.8865,-0.18560791015625,-0.0123291015625,1.01263427734375,3.461761474609375,-2.504730224609375,-0.04486083984375,1,1.0,1.0,1.0,1.0,50.00
2022-11-23 20:16:23.550,-0.021132667,0.95697594,0.8871884,0.4699233,0.41267326,0.6895855,0.6630892,0.081408344,0.23769423,0.60057884,0.8784933,0.27913022,-0.01620833,-0.086812235,-0.15830941,0.13570271,-0.41385496,-0.64720976,-0.5183645,-0.22899173,830.84247,804.2491,813.5165,838.9011,848.1685,-0.18560791015625,-0.0123291015625,1.01263427734375,3.461761474609375,-2.504730224609375,-0.04486083984375,1,1.0,1.0,1.0,1.0,50.00
2022-11-23 20:16:23.551,-0.021132667,0.95697594,0.8871884,0.4699233,0.41267326,0.6895855,0.6630892,0.081408344,0.23769423,0.60057884,0.8784933,0.27913022,-0.01620833,-0.086812235,-0.15830941,0.13570271,-0.41385496,-0.64720976,-0.5183645,-0.22899173,778.86444,806.6667,809.89014,780.4762,704.7253,-0.18560791015625,-0.0123291015625,1.01263427734375,3.461761474609375,-2.504730224609375,-0.04486083984375,1,1.0,1.0,1.0,1.0,50.00
2022-11-23 20:16:23.551,-0.021132667,0.95697594,0.8871884,0.4699233,0.41267326,0.6895855,0.6630892,0.081408344,0.23769423,0.60057884,0.8784933,0.27913022,-0.01620833,-0.086812235,-0.15830941,0.13570271,-0.41385496,-0.64720976,-0.5183645,-0.22899173,773.22345,806.26373,803.8461,769.19415,684.57874,-0.18560791015625,-0.0123291015625,1.01263427734375,3.461761474609375,-2.504730224609375,-0.04486083984375,1,1.0,1.0,1.0,1.0,50.00
2022-11-23 20:16:23.551,-0.021132667,0.95697594,0.8871884,0.4699233,0.41267326,0.6895855,0.6630892,0.081408344,0.23769423,0.60057884,0.8784933,0.27913022,-0.01620833,-0.086812235,-0.15830941,0.13570271,-0.41385496,-0.64720976,-0.5183645,-0.22899173,823.5897,802.23444,807.8755,821.5751,840.5128,-0.18560791015625,-0.0123291015625,1.01263427734375,3.461761474609375,-2.504730224609375,-0.04486083984375,1,1.0,1.0,1.0,1.0,50.00
2022-11-23 20:16:23.551,-0.021132667,0.95697594,0.8871884,0.4699233,0.41267326,0.6895855,0.6630892,0.081408344,0.23769423,0.60057884,0.8784933,0.27913022,-0.01620833,-0.086812235,-0.15830941,0.13570271,-0.41385496,-0.64720976,-0.5183645,-0.22899173,839.707,807.47253,808.2784,824.7985,844.5421,-0.18560791015625,-0.0123291015625,1.01263427734375,3.461761474609375,-2.504730224609375,-0.04486083984375,1,1.0,1.0,1.0,1.0,50.00
2022-11-23 20:16:23.552,-0.021132667,0.95697594,0.8871884,0.4699233,0.41267326,0.6895855,0.6630892,0.081408344,0.23769423,0.60057884,0.8784933,0.27913022,-0.01620833,-0.086812235,-0.15830941,0.13570271,-0.41385496,-0.64720976,-0.5183645,-0.22899173,778.46155,810.293,801.02563,788.5348,834.0659,-0.18560791015625,-0.0123291015625,1.01263427734375,3.461761474609375,-2.504730224609375,-0.04486083984375,1,1.0,1.0,1.0,1.0,50.00
2022-11-23 20:16:23.552,-0.021132667,0.95697594,0.8871884,0.4699233,0.41267326,0.6895855,0.6630892,0.081408344,0.23769423,0.60057884,0.8784933,0.27913022,-0.01620833,-0.086812235,-0.15830941,0.13570271,-0.41385496,-0.64720976,-0.5183645,-0.22899173,755.89746,807.8755,798.20514,785.31134,915.8608,-0.18560791015625,-0.0123291015625,1.01263427734375,3.461761474609375,-2.504730224609375,-0.04486083984375,1,1.0,1.0,1.0,1.0,50.00
2022-11-23 20:16:23.552,-0.021132667,0.95697594,0.8871884,0.4699233,0.41267326,0.6895855,0.6630892,0.081408344,0.23769423,0.60057884,0.8784933,0.27913022,-0.01620833,-0.086812235,-0.15830941,0.13570271,-0.41385496,-0.64720976,-0.5183645,-0.22899173,810.696,804.2491,801.02563,812.71063,844.1392,-0.18560791015625,-0.0123291015625,1.01263427734375,3.461761474609375,-2.504730224609375,-0.04486083984375,1,1.0,1.0,1.0,1.0,50.00
2022-11-23 20:16:23.552,-0.021132667,0.95697594,0.8871884,0.4699233,0.41267326,0.6895855,0.6630892,0.081408344,0.23769423,0.60057884,0.8784933,0.27913022,-0.01620833,-0.086812235,-0.15830941,0.13570271,-0.41385496,-0.64720976,-0.5183645,-0.22899173,833.663,803.0403,801.02563,828.4249,870.32965,-0.18560791015625,-0.0123291015625,1.01263427734375,3.461761474609375,-2.504730224609375,-0.04486083984375,1,1.0,1.0,1.0,1.0,50.00
2022-11-23 20:16:23.574,-0.021132667,0.95697594,0.8871884,0.4699233,0.41267326,0.6895855,0.6630892,0.081408344,0.23769423,0.60057884,0.8784933,0.27913022,-0.01620833,-0.086812235,-0.15830941,0.13570271,-0.41385496,-0.64720976,-0.5183645,-0.22899173,797.3993,806.26373,802.6374,807.47253,873.1502,-0.1884765625,-0.01116943359375,1.00341796875,2.82623291015625,-2.938385009765625,0.770111083984375,1,1.0,1.0,1.0,1.0,50.00
2022-11-23 20:16:23.575,-0.003538066,1.0346481,0.9169826,0.49912927,0.4433991,0.7482178,0.69355327,0.019897528,0.23769423,0.59596294,0.8666034,0.18403715,-0.008098807,-0.06140607,-0.15043084,0.093584776,-0.4728656,-0.6291156,-0.55275714,-0.30829874,756.7033,810.293,799.41394,781.28204,814.7253,-0.1884765625,-0.01116943359375,1.00341796875,2.82623291015625,-2.938385009765625,0.770111083984375,1,1.0,1.0,1.0,1.0,50.00
2022-11-23 20:16:23.576,-0.003538066,1.0346481,0.9169826,0.49912927,0.4433991,0.7482178,0.69355327,0.019897528,0.23769423,0.59596294,0.8666034,0.18403715,-0.008098807,-0.06140607,-0.15043084,0.093584776,-0.4728656,-0.6291156,-0.55275714,-0.30829874,787.326,809.4872,801.02563,806.6667,849.3773,-0.1884765625,-0.01116943359375,1.00341796875,2.82623291015625,-2.938385009765625,0.770111083984375,1,1.0,1.0,1.0,1.0,50.00
2022-11-23 20:16:23.576,-0.003538066,1.0346481,0.9169826,0.49912927,0.4433991,0.7482178,0.69355327,0.019897528,0.23769423,0.59596294,0.8666034,0.18403715,-0.008098807,-0.06140607,-0.15043084,0.093584776,-0.4728656,-0.6291156,-0.55275714,-0.30829874,842.9304,804.2491,810.696,838.49817,1014.57874,-0.1884765625,-0.01116943359375,1.00341796875,2.82623291015625,-2.938385009765625,0.770111083984375,1,1.0,1.0,1.0,1.0,50.00
2022-11-23 20:16:23.577,-0.003538066,1.0346481,0.9169826,0.49912927,0.4433991,0.7482178,0.69355327,0.019897528,0.23769423,0.59596294,0.8666034,0.18403715,-0.008098807,-0.06140607,-0.15043084,0.093584776,-0.4728656,-0.6291156,-0.55275714,-0.30829874,808.68134,805.05493,806.6667,808.68134,1027.0696,-0.1884765625,-0.01116943359375,1.00341796875,2.82623291015625,-2.938385009765625,0.770111083984375,1,1.0,1.0,1.0,1.0,50.00
2022-11-23 20:16:23.577,-0.003538066,1.0346481,0.9169826,0.49912927,0.4433991,0.7482178,0.69355327,0.019897528,0.23769423,0.59596294,0.8666034,0.18403715,-0.008098807,-0.06140607,-0.15043084,0.093584776,-0.4728656,-0.6291156,-0.55275714,-0.30829874,760.7326,807.47253,805.8608,780.07324,880.0,-0.1884765625,-0.01116943359375,1.00341796875,2.82623291015625,-2.938385009765625,0.770111083984375,1,1.0,1.0,1.0,1.0,50.00
2022-11-23 20:16:23.577,-0.003538066,1.0346481,0.9169826,0.49912927,0.4433991,0.7482178,0.69355327,0.019897528,0.23769423,0.59596294,0.8666034,0.18403715,-0.008098807,-0.06140607,-0.15043084,0.093584776,-0.4728656,-0.6291156,-0.55275714,-0.30829874,787.326,812.3077,807.47253,797.3993,839.707,-0.1884765625,-0.01116943359375,1.00341796875,2.82623291015625,-2.938385009765625,0.770111083984375,1,1.0,1.0,1.0,1.0,50.00
2022-11-23 20:16:23.577,-0.003538066,1.0346481,0.9169826,0.49912927,0.4433991,0.7482178,0.69355327,0.019897528,0.23769423,0.59596294,0.8666034,0.18403715,-0.008098807,-0.06140607,-0.15043084,0.093584776,-0.4728656,-0.6291156,-0.55275714,-0.30829874,830.84247,812.3077,804.2491,824.7985,863.0769,-0.1884765625,-0.01116943359375,1.00341796875,2.82623291015625,-2.938385009765625,0.770111083984375,1,1.0,1.0,1.0,1.0,50.00
2022-11-23 20:16:23.578,-0.003538066,1.0346481,0.9169826,0.49912927,0.4433991,0.7482178,0.69355327,0.019897528,0.23769423,0.59596294,0.8666034,0.18403715,-0.008098807,-0.06140607,-0.15043084,0.093584776,-0.4728656,-0.6291156,-0.55275714,-0.30829874,828.022,809.0842,803.8461,819.9634,1043.5897,-0.1884765625,-0.01116943359375,1.00341796875,2.82623291015625,-2.938385009765625,0.770111083984375,1,1.0,1.0,1.0,1.0,50.00
2022-11-23 20:16:23.578,-0.003538066,1.0346481,0.9169826,0.49912927,0.4433991,0.7482178,0.69355327,0.019897528,0.23769423,0.59596294,0.8666034,0.18403715,-0.008098807,-0.06140607,-0.15043084,0.093584776,-0.4728656,-0.6291156,-0.55275714,-0.30829874,767.5824,804.65204,804.2491,780.07324,844.1392,-0.1884765625,-0.01116943359375,1.00341796875,2.82623291015625,-2.938385009765625,0.770111083984375,1,1.0,1.0,1.0,1.0,50.00
2022-11-23 20:16:23.578,-0.003538066,1.0346481,0.9169826,0.49912927,0.4433991,0.7482178,0.69355327,0.019897528,0.23769423,0.59596294,0.8666034,0.18403715,-0.008098807,-0.06140607,-0.15043084,0.093584776,-0.4728656,-0.6291156,-0.55275714,-0.30829874,757.1062,798.60803,807.8755,779.67035,564.90845,-0.1884765625,-0.01116943359375,1.00341796875,2.82623291015625,-2.938385009765625,0.770111083984375,1,1.0,1.0,1.0,1.0,50.00
2022-11-23 20:16:23.579,-0.003538066,1.0346481,0.9169826,0.49912927,0.4433991,0.7482178,0.69355327,0.019897528,0.23769423,0.59596294,0.8666034,0.18403715,-0.008098807,-0.06140607,-0.15043084,0.093584776,-0.4728656,-0.6291156,-0.55275714,-0.30829874,819.15753,802.6374,809.0842,819.9634,779.67035,-0.1884765625,-0.01116943359375,1.00341796875,2.82623291015625,-2.938385009765625,0.770111083984375,1,1.0,1.0,1.0,1.0,50.00
2022-11-23 20:16:23.649,-0.003538066,1.0346481,0.9169826,0.49912927,0.4433991,0.7482178,0.69355327,0.019897528,0.23769423,0.59596294,0.8666034,0.18403715,-0.008098807,-0.06140607,-0.15043084,0.093584776,-0.4728656,-0.6291156,-0.55275714,-0.30829874,838.0952,805.8608,812.3077,827.619,875.9707,-0.1884765625,-0.01116943359375,1.00341796875,2.82623291015625,-2.938385009765625,0.770111083984375,1,1.0,1.0,1.0,1.0,50.00
2022-11-23 20:16:23.650,-0.003538066,1.0346481,0.9169826,0.49912927,0.4433991,0.7482178,0.69355327,0.019897528,0.23769423,0.59596294,0.8666034,0.18403715,-0.008098807,-0.06140607,-0.15043084,0.093584776,-0.4728656,-0.6291156,-0.55275714,-0.30829874,778.46155,803.44324,810.293,782.8938,688.60803,-0.1884765625,-0.01116943359375,1.00341796875,2.82623291015625,-2.938385009765625,0.770111083984375,1,1.0,1.0,1.0,1.0,50.00
2022-11-23 20:16:23.650,-0.003538066,1.0346481,0.9169826,0.49912927,0.4433991,0.7482178,0.69355327,0.019897528,0.23769423,0.59596294,0.8666034,0.18403715,-0.008098807,-0.06140607,-0.15043084,0.093584776,-0.4728656,-0.6291156,-0.55275714,-0.30829874,750.2564,799.011,804.65204,765.9707,525.0183,-0.1884765625,-0.01116943359375,1.00341796875,2.82623291015625,-2.938385009765625,0.770111083984375,1,1.0,1.0,1.0,1.0,50.00
2022-11-23 20:16:23.650,-0.003538066,1.0346481,0.9169826,0.49912927,0.4433991,0.7482178,0.69355327,0.019897528,0.23769423,0.59596294,0.8666034,0.18403715,-0.008098807,-0.06140607,-0.15043084,0.093584776,-0.4728656,-0.6291156,-0.55275714,-0.30829874,799.011,803.8461,801.4286,810.696,774.43225,-0.1884765625,-0.01116943359375,1.00341796875,2.82623291015625,-2.938385009765625,0.770111083984375,1,1.0,1.0,1.0,1.0,50.00
2022-11-23 20:16:23.651,-0.003538066,1.0346481,0.9169826,0.49912927,0.4433991,0.7482178,0.69355327,0.019897528,0.23769423,0.59596294,0.8666034,0.18403715,-0.008098807,-0.06140607,-0.15043084,0.093584776,-0.4728656,-0.6291156,-0.55275714,-0.30829874,840.10986,809.4872,801.4286,834.87177,1030.2931,-0.1884765625,-0.01116943359375,1.00341796875,2.82623291015625,-2.938385009765625,0.770111083984375,1,1.0,1.0,1.0,1.0,50.00
2022-11-23 20:16:23.651,-0.003538066,1.0346481,0.9169826,0.49912927,0.4433991,0.7482178,0.69355327,0.019897528,0.23769423,0.59596294,0.8666034,0.18403715,-0.008098807,-0.06140607,-0.15043084,0.093584776,-0.4728656,-0.6291156,-0.55275714,-0.30829874,803.0403,810.696,805.05493,804.65204,883.6264,-0.1884765625,-0.01116943359375,1.00341796875,2.82623291015625,-2.938385009765625,0.770111083984375,1,1.0,1.0,1.0,1.0,50.00
2022-11-23 20:16:23.651,-0.003538066,1.0346481,0.9169826,0.49912927,0.4433991,0.7482178,0.69355327,0.019897528,0.23769423,0.59596294,0.8666034,0.18403715,-0.008098807,-0.06140607,-0.15043084,0.093584776,-0.4728656,-0.6291156,-0.55275714,-0.30829874,760.7326,806.6667,807.47253,787.72894,685.78754,-0.1884765625,-0.01116943359375,1.00341796875,2.82623291015625,-2.938385009765625,0.770111083984375,1,1.0,1.0,1.0,1.0,50.00
2022-11-23 20:16:23.651,-0.003538066,1.0346481,0.9169826,0.49912927,0.4433991,0.7482178,0.69355327,0.019897528,0.23769423,0.59596294,0.8666034,0.18403715,-0.008098807,-0.06140607,-0.15043084,0.093584776,-0.4728656,-0.6291156,-0.55275714,-0.30829874,801.02563,810.293,807.8755,815.12823,867.1062,-0.1884765625,-0.01116943359375,1.00341796875,2.82623291015625,-2.938385009765625,0.770111083984375,1,1.0,1.0,1.0,1.0,50.00
2022-11-23 20:16:23.652,-0.003538066,1.0346481,0.9169826,0.49912927,0.4433991,0.7482178,0.69355327,0.019897528,0.23769423,0.59596294,0.8666034,0.18403715,-0.008098807,-0.06140607,-0.15043084,0.093584776,-0.4728656,-0.6291156,-0.55275714,-0.30829874,840.5128,813.91943,808.2784,835.6777,1120.5494,-0.1884765625,-0.01116943359375,1.00341796875,2.82623291015625,-2.938385009765625,0.770111083984375,1,1.0,1.0,1.0,1.0,50.00
2022-11-23 20:16:23.652,-0.003538066,1.0346481,0.9169826,0.49912927,0.4433991,0.7482178,0.69355327,0.019897528,0.23769423,0.59596294,0.8666034,0.18403715,-0.008098807,-0.06140607,-0.15043084,0.093584776,-0.4728656,-0.6291156,-0.55275714,-0.30829874,813.5165,812.3077,808.2784,817.9487,889.2674,-0.1884765625,-0.01116943359375,1.00341796875,2.82623291015625,-2.938385009765625,0.770111083984375,1,1.0,1.0,1.0,1.0,50.00
2022-11-23 20:16:23.652,-0.003538066,1.0346481,0.9169826,0.49912927,0.4433991,0.7482178,0.69355327,0.019897528,0.23769423,0.59596294,0.8666034,0.18403715,-0.008098807,-0.06140607,-0.15043084,0.093584776,-0.4728656,-0.6291156,-0.55275714,-0.30829874,763.95605,811.0989,805.05493,782.0879,647.9121,-0.1884765625,-0.01116943359375,1.00341796875,2.82623291015625,-2.938385009765625,0.770111083984375,1,1.0,1.0,1.0,1.0,50.00
2022-11-23 20:16:23.652,-0.003538066,1.0346481,0.9169826,0.49912927,0.4433991,0.7482178,0.69355327,0.019897528,0.23769423,0.59596294,0.8666034,0.18403715,-0.008098807,-0.06140607,-0.15043084,0.093584776,-0.4728656,-0.6291156,-0.55275714,-0.30829874,767.5824,807.0696,802.23444,786.9231,671.28204,-0.1884765625,-0.01116943359375,1.00341796875,2.82623291015625,-2.938385009765625,0.770111083984375,1,1.0,1.0,1.0,1.0,50.00
2022-11-23 20:16:23.674,-0.003538066,1.0346481,0.9169826,0.49912927,0.4433991,0.7482178,0.69355327,0.019897528,0.23769423,0.59596294,0.8666034,0.18403715,-0.008098807,-0.06140607,-0.15043084,0.093584776,-0.4728656,-0.6291156,-0.55275714,-0.30829874,814.7253,803.44324,804.65204,826.0073,838.9011,-0.18316650390625,-0.007080078125,0.9993896484375,3.36456298828125,-2.190704345703125,-0.49346923828125,1,1.0,1.0,1.0,1.0,50.00
2022-11-23 20:16:23.675,-0.003538066,1.0346481,0.9169826,0.49912927,0.4433991,0.7482178,0.69355327,0.019897528,0.23769423,0.59596294,0.8666034,0.18403715,-0.008098807,-0.06140607,-0.15043084,0.093584776,-0.4728656,-0.6291156,-0.55275714,-0.30829874,818.3516,803.0403,805.8608,821.978,830.0366,-0.18316650390625,-0.007080078125,0.9993896484375,3.36456298828125,-2.190704345703125,-0.49346923828125,1,1.0,1.0,1.0,1.0,50.00
2022-11-23 20:16:23.675,-0.003538066,1.0346481,0.9169826,0.49912927,0.4433991,0.7482178,0.69355327,0.019897528,0.23769423,0.59596294,0.8666034,0.18403715,-0.008098807,-0.06140607,-0.15043084,0.093584776,-0.4728656,-0.6291156,-0.55275714,-0.30829874,778.46155,803.0403,804.2491,784.10254,662.4176,-0.18316650390625,-0.007080078125,0.9993896484375,3.36456298828125,-2.190704345703125,-0.49346923828125,1,1.0,1.0,1.0,1.0,50.00
2022-11-23 20:16:23.675,0.013575547,1.0688835,0.9479399,0.53236187,0.48489255,0.7696583,0.728606,-0.018270329,0.23769423,0.5955761,0.8565502,0.17039466,0.0034215176,-0.038896255,-0.13715808,0.051337563,-0.52517927,-0.59954077,-0.5859233,-0.37786737,771.2088,803.8461,804.65204,780.87915,632.1978,-0.18316650390625,-0.007080078125,0.9993896484375,3.36456298828125,-2.190704345703125,-0.49346923828125,1,1.0,1.0,1.0,1.0,50.00
2022-11-23 20:16:23.677,0.013575547,1.0688835,0.9479399,0.53236187,0.48489255,0.7696583,0.728606,-0.018270329,0.23769423,0.5955761,0.8565502,0.17039466,0.0034215176,-0.038896255,-0.13715808,0.051337563,-0.52517927,-0.59954077,-0.5859233,-0.37786737,807.0696,803.0403,803.8461,819.15753,804.65204,-0.18316650390625,-0.007080078125,0.9993896484375,3.36456298828125,-2.190704345703125,-0.49346923828125,1,1.0,1.0,1.0,1.0,50.00
2022-11-23 20:16:23.677,0.013575547,1.0688835,0.9479399,0.53236187,0.48489255,0.7696583,0.728606,-0.018270329,0.23769423,0.5955761,0.8565502,0.17039466,0.0034215176,-0.038896255,-0.13715808,0.051337563,-0.52517927,-0.59954077,-0.5859233,-0.37786737,828.022,802.6374,802.6374,828.8278,979.92676,-0.18316650390625,-0.007080078125,0.9993896484375,3.36456298828125,-2.190704345703125,-0.49346923828125,1,1.0,1.0,1.0,1.0,50.00
2022-11-23 20:16:23.677,0.013575547,1.0688835,0.9479399,0.53236187,0.48489255,0.7696583,0.728606,-0.018270329,0.23769423,0.5955761,0.8565502,0.17039466,0.0034215176,-0.038896255,-0.13715808,0.051337563,-0.52517927,-0.59954077,-0.5859233,-0.37786737,782.49084,804.65204,805.4579,799.41394,857.8388,-0.18316650390625,-0.007080078125,0.9993896484375,3.36456298828125,-2.190704345703125,-0.49346923828125,1,1.0,1.0,1.0,1.0,50.00
2022-11-23 20:16:23.677,0.013575547,1.0688835,0.9479399,0.53236187,0.48489255,0.7696583,0.728606,-0.018270329,0.23769423,0.5955761,0.8565502,0.17039466,0.0034215176,-0.038896255,-0.13715808,0.051337563,-0.52517927,-0.59954077,-0.5859233,-0.37786737,752.674,804.2491,804.65204,781.685,761.53845,-0.18316650390625,-0.007080078125,0.9993896484375,3.36456298828125,-2.190704345703125,-0.49346923828125,1,1.0,1.0,1.0,1.0,50.00
2022-11-23 20:16:23.677,0.013575547,1.0688835,0.9479399,0.53236187,0.48489255,0.7696583,0.728606,-0.018270329,0.23769423,0.5955761,0.8565502,0.17039466,0.0034215176,-0.038896255,-0.13715808,0.051337563,-0.52517927,-0.59954077,-0.5859233,-0.37786737,800.2198,803.0403,801.8315,806.6667,783.69965,-0.18316650390625,-0.007080078125,0.9993896484375,3.36456298828125,-2.190704345703125,-0.49346923828125,1,1.0,1.0,1.0,1.0,50.00
2022-11-23 20:16:23.678,0.013575547,1.0688835,0.9479399,0.53236187,0.48489255,0.7696583,0.728606,-0.018270329,0.23769423,0.5955761,0.8565502,0.17039466,0.0034215176,-0.038896255,-0.13715808,0.051337563,-0.52517927,-0.59954077,-0.5859233,-0.37786737,834.4689,807.0696,801.4286,829.6337,809.0842,-0.18316650390625,-0.007080078125,0.9993896484375,3.36456298828125,-2.190704345703125,-0.49346923828125,1,1.0,1.0,1.0,1.0,50.00
2022-11-23 20:16:23.678,0.013575547,1.0688835,0.9479399,0.53236187,0.48489255,0.7696583,0.728606,-0.018270329,0.23769423,0.5955761,0.8565502,0.17039466,0.0034215176,-0.038896255,-0.13715808,0.051337563,-0.52517927,-0.59954077,-0.5859233,-0.37786737,804.2491,809.89014,800.6227,801.4286,790.14655,-0.18316650390625,-0.007080078125,0.9993896484375,3.36456298828125,-2.190704345703125,-0.49346923828125,1,1.0,1.0,1.0,1.0,50.00
2022-11-23 20:16:23.678,0.013575547,1.0688835,0.9479399,0.53236187,0.48489255,0.7696583,0.728606,-0.018270329,0.23769423,0.5955761,0.8565502,0.17039466,0.0034215176,-0.038896255,-0.13715808,0.051337563,-0.52517927,-0.59954077,-0.5859233,-0.37786737,771.6117,804.2491,799.81683,783.2967,773.22345,-0.18316650390625,-0.007080078125,0.9993896484375,3.36456298828125,-2.190704345703125,-0.49346923828125,1,1.0,1.0,1.0,1.0,50.00
2022-11-23 20:16:23.725,0.013575547,1.0688835,0.9479399,0.53236187,0.48489255,0.7696583,0.728606,-0.018270329,0.23769423,0.5955761,0.8565502,0.17039466,0.0034215176,-0.038896255,-0.13715808,0.051337563,-0.52517927,-0.59954077,-0.5859233,-0.37786737,792.5641,800.2198,804.2491,803.0403,760.32965,-0.1845703125,-0.0018310546875,0.9996337890625,4.77020263671875,0.13458251953125,0.9869384765625,1,1.0,1.0,1.0,1.0,50.00
2022-11-23 20:16:23.725,0.013575547,1.0688835,0.9479399,0.53236187,0.48489255,0.7696583,0.728606,-0.018270329,0.23769423,0.5955761,0.8565502,0.17039466,0.0034215176,-0.038896255,-0.13715808,0.051337563,-0.52517927,-0.59954077,-0.5859233,-0.37786737,833.2601,798.60803,803.0403,826.4103,810.293,-0.1845703125,-0.0018310546875,0.9996337890625,4.77020263671875,0.13458251953125,0.9869384765625,1,1.0,1.0,1.0,1.0,50.00
2022-11-23 20:16:23.725,0.013575547,1.0688835,0.9479399,0.53236187,0.48489255,0.7696583,0.728606,-0.018270329,0.23769423,0.5955761,0.8565502,0.17039466,0.0034215176,-0.038896255,-0.13715808,0.051337563,-0.52517927,-0.59954077,-0.5859233,-0.37786737,809.0842,801.02563,800.2198,809.4872,850.58606,-0.1845703125,-0.0018310546875,0.9996337890625,4.77020263671875,0.13458251953125,0.9869384765625,1,1.0,1.0,1.0,1.0,50.00
2022-11-23 20:16:23.726,0.013575547,1.0688835,0.9479399,0.53236187,0.48489255,0.7696583,0.728606,-0.018270329,0.23769423,0.5955761,0.8565502,0.17039466,0.0034215176,-0.038896255,-0.13715808,0.051337563,-0.52517927,-0.59954077,-0.5859233,-0.37786737,761.53845,798.60803,797.3993,772.8205,716.8132,-0.1845703125,-0.0018310546875,0.9996337890625,4.77020263671875,0.13458251953125,0.9869384765625,1,1.0,1.0,1.0,1.0,50.00
2022-11-23 20:16:23.726,0.013575547,1.0688835,0.9479399,0.53236187,0.48489255,0.7696583,0.728606,-0.018270329,0.23769423,0.5955761,0.8565502,0.17039466,0.0034215176,-0.038896255,-0.13715808,0.051337563,-0.52517927,-0.59954077,-0.5859233,-0.37786737,778.0586,796.1905,799.41394,786.52014,654.35895,-0.1845703125,-0.0018310546875,0.9996337890625,4.77020263671875,0.13458251953125,0.9869384765625,1,1.0,1.0,1.0,1.0,50.00
2022-11-23 20:16:23.726,0.013575547,1.0688835,0.9479399,0.53236187,0.48489255,0.7696583,0.728606,-0.018270329,0.23769423,0.5955761,0.8565502,0.17039466,0.0034215176,-0.038896255,-0.13715808,0.051337563,-0.52517927,-0.59954077,-0.5859233,-0.37786737,833.2601,806.26373,804.65204,816.7399,824.3956,-0.1845703125,-0.0018310546875,0.9996337890625,4.77020263671875,0.13458251953125,0.9869384765625,1,1.0,1.0,1.0,1.0,50.00
2022-11-23 20:16:23.726,0.013575547,1.0688835,0.9479399,0.53236187,0.48489255,0.7696583,0.728606,-0.018270329,0.23769423,0.5955761,0.8565502,0.17039466,0.0034215176,-0.038896255,-0.13715808,0.051337563,-0.52517927,-0.59954077,-0.5859233,-0.37786737,838.0952,810.696,803.8461,815.5311,1120.1465,-0.1845703125,-0.0018310546875,0.9996337890625,4.77020263671875,0.13458251953125,0.9869384765625,1,1.0,1.0,1.0,1.0,50.00
